      P(bar)          T(K)        Rho(k_gm-3)
  7988.27588       990.564          272.42999
  7976.55566       990.172          272.14001
  7964.84814       989.779          271.85001
  7953.15283       989.387          271.56000
  7941.47021       988.994          271.26999
  7929.80029       988.601          270.97000
  7918.14258       988.209          270.67999
  7906.49707       987.816          270.39001
  7894.86523       987.423          270.10001
  7883.24463       987.031          269.81000
  7871.63721       986.638          269.51999
  7860.04248       986.245          269.23001
  7848.45947       985.852          268.94000
  7836.88965       985.459          268.64999
  7825.33203       985.067          268.35999
  7813.78711       984.674          268.07999
  7802.25391       984.281          267.79001
  7790.73340       983.888          267.50000
  7779.22559       983.495          267.20999
  7767.72998       983.102          266.92001
  7756.24707       982.709          266.63000
  7744.77637       982.316          266.35001
  7733.31787       981.923          266.06000
  7721.87207       981.530          265.76999
  7710.43799       981.137          265.48001
  7699.01709       980.744          265.20001
  7687.60791       980.351          264.91000
  7676.21143       979.958          264.62000
  7664.82666       979.565          264.34000
  7653.45557       979.172          264.04999
  7642.09521       978.779          263.76001
  7630.74805       978.386          263.48001
  7619.41309       977.992          263.19000
  7608.09082       977.599          262.91000
  7596.78027       977.206          262.62000
  7585.48242       976.813          262.34000
  7574.19580       976.420          262.04999
  7562.92236       976.026          261.76999
  7551.66064       975.633          261.48001
  7540.41211       975.240          261.20001
  7529.17480       974.846          260.92001
  7517.95020       974.453          260.63000
  7506.73779       974.060          260.35001
  7495.53711       973.666          260.06000
  7484.34961       973.273          259.78000
  7473.17383       972.880          259.50000
  7462.00977       972.486          259.20999
  7450.85840       972.093          258.92999
  7439.71924       971.699          258.64999
  7428.59131       971.306          258.37000
  7417.47656       970.912          258.09000
  7406.37354       970.519          257.79999
  7395.28271       970.125          257.51999
  7384.20410       969.731          257.23999
  7373.13721       969.338          256.95999
  7362.08301       968.944          256.67999
  7351.04053       968.551          256.39999
  7340.01025       968.157          256.12000
  7328.99219       967.763          255.84000
  7317.98584       967.370          255.56000
  7306.99121       966.976          255.28000
  7296.00977       966.582          255.00000
  7285.03955       966.188          254.72000
  7274.08105       965.794          254.44000
  7263.13525       965.401          254.16000
  7252.20166       965.007          253.88000
  7241.27930       964.613          253.60001
  7230.36914       964.219          253.32001
  7219.47119       963.825          253.03999
  7208.58545       963.431          252.77000
  7197.71143       963.037          252.49001
  7186.84912       962.643          252.21001
  7175.99951       962.250          251.92999
  7165.16162       961.856          251.64999
  7154.33545       961.462          251.38000
  7143.52051       961.068          251.10001
  7132.71875       960.674          250.82001
  7121.92773       960.279          250.55000
  7111.14941       959.885          250.27000
  7100.38281       959.491          249.99001
  7089.62793       959.097          249.72000
  7078.88525       958.703          249.44000
  7068.15430       958.309          249.17000
  7057.43506       957.915          248.89000
  7046.72754       957.521          248.61000
  7036.03223       957.126          248.34000
  7025.34863       956.732          248.06000
  7014.67725       956.338          247.78999
  7004.01660       955.943          247.52000
  6993.36914       955.549          247.24001
  6982.73193       955.155          246.97000
  6972.10840       954.760          246.69000
  6961.49512       954.366          246.42000
  6950.89404       953.972          246.14999
  6940.30469       953.577          245.87000
  6929.72754       953.183          245.60001
  6919.16162       952.789          245.33000
  6908.60791       952.394          245.05000
  6898.06592       952.000          244.78000
  6887.53516       951.605          244.50999
  6877.01611       951.211          244.24001
  6866.50928       950.816          243.96001
  6856.01416       950.421          243.69000
  6845.53027       950.027          243.42000
  6835.05859       949.632          243.14999
  6824.59766       949.238          242.88000
  6814.14893       948.843          242.61000
  6803.71240       948.448          242.34000
  6793.28711       948.054          242.07001
  6782.87354       947.659          241.80000
  6772.47119       947.264          241.53000
  6762.08057       946.869          241.25999
  6751.70264       946.475          240.99001
  6741.33496       946.080          240.72000
  6730.97900       945.685          240.45000
  6720.63574       945.290          240.17999
  6710.30273       944.895          239.91000
  6699.98193       944.501          239.64000
  6689.67285       944.106          239.37000
  6679.37549       943.711          239.10001
  6669.08936       943.316          238.83000
  6658.81396       942.921          238.57001
  6648.55127       942.526          238.30000
  6638.29932       942.131          238.03000
  6628.05957       941.736          237.75999
  6617.83105       941.341          237.50000
  6607.61426       940.946          237.23000
  6597.40869       940.551          236.96001
  6587.21484       940.156          236.69000
  6577.03223       939.761          236.42999
  6566.86084       939.365          236.16000
  6556.70166       938.970          235.89999
  6546.55273       938.575          235.63000
  6536.41650       938.180          235.36000
  6526.29102       937.785          235.10001
  6516.17725       937.389          234.83000
  6506.07471       936.994          234.57001
  6495.98340       936.599          234.30000
  6485.90381       936.204          234.03999
  6475.83545       935.808          233.77000
  6465.77832       935.413          233.50999
  6455.73291       935.018          233.24001
  6445.69922       934.622          232.98000
  6435.67627       934.227          232.72000
  6425.66504       933.831          232.46001
  6415.66504       933.436          232.19000
  6405.67627       933.041          231.92999
  6395.69873       932.645          231.66000
  6385.73242       932.250          231.39999
  6375.77783       931.854          231.14000
  6365.83447       931.458          230.88000
  6355.90186       931.063          230.61000
  6345.98145       930.667          230.35001
  6336.07178       930.272          230.09000
  6326.17334       929.876          229.83000
  6316.28613       929.480          229.57001
  6306.41016       929.085          229.31000
  6296.54590       928.689          229.03999
  6286.69238       928.293          228.78000
  6276.85059       927.898          228.52000
  6267.01953       927.502          228.25999
  6257.20020       927.106          228.00000
  6247.39160       926.710          227.74001
  6237.59424       926.315          227.48000
  6227.80811       925.919          227.22000
  6218.03271       925.523          226.96001
  6208.26953       925.127          226.70000
  6198.51660       924.731          226.44000
  6188.77490       924.335          226.19000
  6179.04492       923.939          225.92000
  6169.32568       923.543          225.67000
  6159.61816       923.147          225.41000
  6149.92041       922.751          225.14999
  6140.23486       922.355          224.89000
  6130.56006       921.959          224.64000
  6120.89648       921.563          224.38000
  6111.24414       921.167          224.12000
  6101.60254       920.771          223.86000
  6091.97266       920.375          223.61000
  6082.35352       919.979          223.35001
  6072.74512       919.583          223.09000
  6063.14746       919.186          222.83000
  6053.56152       918.790          222.58000
  6043.98633       918.394          222.32001
  6034.42236       917.998          222.07001
  6024.86914       917.601          221.81000
  6015.32666       917.205          221.55000
  6005.79590       916.809          221.30000
  5996.27588       916.412          221.03999
  5986.76660       916.016          220.78999
  5977.26855       915.620          220.53000
  5967.78125       915.223          220.28000
  5958.30518       914.827          220.02000
  5948.83984       914.430          219.77000
  5939.38574       914.034          219.52000
  5929.94238       913.638          219.25999
  5920.51025       913.241          219.00999
  5911.08789       912.844          218.75999
  5901.67725       912.448          218.50000
  5892.27783       912.051          218.25000
  5882.88916       911.655          218.00000
  5873.51123       911.258          217.74001
  5864.14404       910.862          217.49001
  5854.78760       910.465          217.24001
  5845.44238       910.068          216.98000
  5836.10840       909.672          216.73000
  5826.78467       909.275          216.48000
  5817.47119       908.878          216.23000
  5808.16943       908.481          215.98000
  5798.87793       908.085          215.73000
  5789.59814       907.688          215.48000
  5780.32813       907.291          215.22000
  5771.06934       906.894          214.98000
  5761.82129       906.497          214.72000
  5752.58447       906.100          214.47000
  5743.35791       905.704          214.22000
  5734.14258       905.307          213.97000
  5724.93750       904.910          213.72000
  5715.74316       904.513          213.47000
  5706.56006       904.116          213.23000
  5697.38770       903.719          212.98000
  5688.22510       903.322          212.73000
  5679.07373       902.925          212.48000
  5669.93359       902.528          212.23000
  5660.80371       902.131          211.98000
  5651.68457       901.733          211.73000
  5642.57617       901.336          211.49001
  5633.47852       900.939          211.24001
  5624.39111       900.542          210.99001
  5615.31445       900.145          210.74001
  5606.24902       899.748          210.49001
  5597.19336       899.350          210.25000
  5588.14893       898.953          210.00000
  5579.11572       898.556          209.75000
  5570.09229       898.159          209.50999
  5561.07959       897.761          209.25999
  5552.07764       897.364          209.00999
  5543.08594       896.967          208.77000
  5534.10498       896.569          208.52000
  5525.13477       896.172          208.28000
  5516.17480       895.774          208.03000
  5507.22559       895.377          207.78000
  5498.28760       894.979          207.53999
  5489.35938       894.582          207.30000
  5480.44141       894.184          207.05000
  5471.53467       893.787          206.81000
  5462.63818       893.389          206.56000
  5453.75244       892.992          206.32001
  5444.87695       892.594          206.07001
  5436.01172       892.197          205.83000
  5427.15723       891.799          205.59000
  5418.31299       891.401          205.34000
  5409.47949       891.004          205.10001
  5400.65674       890.606          204.86000
  5391.84375       890.208          204.61000
  5383.04199       889.810          204.37000
  5374.25000       889.413          204.13000
  5365.46924       889.015          203.89000
  5356.69824       888.617          203.64000
  5347.93799       888.219          203.39999
  5339.18799       887.821          203.16000
  5330.44824       887.424          202.92000
  5321.71924       887.026          202.67999
  5313.00049       886.628          202.44000
  5304.29199       886.230          202.19000
  5295.59375       885.832          201.95000
  5286.90625       885.434          201.71001
  5278.22900       885.036          201.47000
  5269.56201       884.638          201.23000
  5260.90527       884.240          200.99001
  5252.25879       883.842          200.75000
  5243.62256       883.444          200.50999
  5234.99707       883.046          200.27000
  5226.38184       882.648          200.03000
  5217.77686       882.250          199.78999
  5209.18213       881.851          199.56000
  5200.59766       881.453          199.32001
  5192.02344       881.055          199.08000
  5183.45947       880.657          198.84000
  5174.90576       880.259          198.60001
  5166.36230       879.860          198.36000
  5157.82910       879.462          198.12000
  5149.30615       879.064          197.89000
  5140.79346       878.665          197.64999
  5132.29102       878.267          197.41000
  5123.79883       877.869          197.17000
  5115.31689       877.470          196.94000
  5106.84473       877.072          196.70000
  5098.38330       876.673          196.46001
  5089.93164       876.275          196.23000
  5081.49072       875.876          195.99001
  5073.05908       875.478          195.75999
  5064.63818       875.079          195.52000
  5056.22754       874.681          195.28000
  5047.82666       874.282          195.05000
  5039.43604       873.884          194.81000
  5031.05615       873.485          194.58000
  5022.68555       873.087          194.34000
  5014.32568       872.688          194.11000
  5005.97559       872.289          193.87000
  4997.63525       871.891          193.64000
  4989.30518       871.492          193.39999
  4980.98584       871.093          193.17000
  4972.67578       870.694          192.94000
  4964.37646       870.296          192.70000
  4956.08691       869.897          192.47000
  4947.80713       869.498          192.23000
  4939.53760       869.099          192.00000
  4931.27832       868.700          191.77000
  4923.02832       868.302          191.53999
  4914.78906       867.903          191.30000
  4906.55957       867.504          191.07001
  4898.34033       867.105          190.84000
  4890.13086       866.706          190.61000
  4881.93164       866.307          190.37000
  4873.74219       865.908          190.14000
  4865.56250       865.509          189.91000
  4857.39307       865.110          189.67999
  4849.23340       864.711          189.45000
  4841.08398       864.312          189.22000
  4832.94385       863.913          188.99001
  4824.81445       863.513          188.75999
  4816.69482       863.114          188.53000
  4808.58447       862.715          188.30000
  4800.48486       862.316          188.07001
  4792.39453       861.917          187.83000
  4784.31445       861.518          187.60001
  4776.24414       861.118          187.37000
  4768.18359       860.719          187.14999
  4760.13330       860.320          186.92000
  4752.09229       859.920          186.69000
  4744.06152       859.521          186.46001
  4736.04053       859.122          186.23000
  4728.02930       858.722          186.00000
  4720.02832       858.323          185.77000
  4712.03662       857.924          185.53999
  4704.05518       857.524          185.32001
  4696.08301       857.125          185.09000
  4688.12109       856.725          184.86000
  4680.16895       856.326          184.63000
  4672.22656       855.926          184.41000
  4664.29395       855.527          184.17999
  4656.37109       855.127          183.95000
  4648.45801       854.728          183.73000
  4640.55469       854.328          183.50000
  4632.66064       853.928          183.27000
  4624.77686       853.529          183.05000
  4616.90283       853.129          182.82001
  4609.03857       852.729          182.59000
  4601.18359       852.330          182.37000
  4593.33838       851.930          182.14000
  4585.50342       851.530          181.92000
  4577.67773       851.130          181.69000
  4569.86182       850.731          181.47000
  4562.05566       850.331          181.24001
  4554.25928       849.931          181.02000
  4546.47217       849.531          180.78999
  4538.69482       849.131          180.57001
  4530.92725       848.731          180.34000
  4523.16943       848.332          180.12000
  4515.42090       847.932          179.89999
  4507.68262       847.532          179.67000
  4499.95313       847.132          179.45000
  4492.23389       846.732          179.23000
  4484.52393       846.332          179.00000
  4476.82373       845.932          178.78000
  4469.13330       845.532          178.56000
  4461.45215       845.132          178.34000
  4453.78027       844.731          178.11000
  4446.11865       844.331          177.89000
  4438.46631       843.931          177.67000
  4430.82324       843.531          177.45000
  4423.18994       843.131          177.23000
  4415.56641       842.731          177.00999
  4407.95215       842.330          176.78999
  4400.34766       841.930          176.56000
  4392.75244       841.530          176.34000
  4385.16650       841.130          176.12000
  4377.59033       840.729          175.89999
  4370.02344       840.329          175.67999
  4362.46680       839.929          175.46001
  4354.91895       839.528          175.24001
  4347.38037       839.128          175.02000
  4339.85156       838.728          174.80000
  4332.33203       838.327          174.58000
  4324.82227       837.927          174.36000
  4317.32178       837.526          174.14000
  4309.83057       837.126          173.92000
  4302.34912       836.725          173.70000
  4294.87695       836.325          173.49001
  4287.41406       835.924          173.27000
  4279.96045       835.524          173.05000
  4272.51660       835.123          172.83000
  4265.08203       834.722          172.61000
  4257.65674       834.322          172.39999
  4250.24072       833.921          172.17999
  4242.83447       833.520          171.96001
  4235.43750       833.120          171.74001
  4228.04980       832.719          171.52000
  4220.67090       832.318          171.31000
  4213.30176       831.918          171.09000
  4205.94189       831.517          170.87000
  4198.59180       831.116          170.66000
  4191.25049       830.715          170.44000
  4183.91846       830.314          170.23000
  4176.59570       829.914          170.00999
  4169.28271       829.513          169.80000
  4161.97852       829.112          169.58000
  4154.68408       828.711          169.37000
  4147.39844       828.310          169.14999
  4140.12207       827.909          168.92999
  4132.85498       827.508          168.72000
  4125.59766       827.107          168.50999
  4118.34863       826.706          168.28999
  4111.10986       826.305          168.08000
  4103.87988       825.904          167.86000
  4096.65869       825.503          167.64999
  4089.44702       825.102          167.42999
  4082.24487       824.701          167.22000
  4075.05151       824.300          167.00999
  4067.86719       823.898          166.80000
  4060.69238       823.497          166.58000
  4053.52661       823.096          166.37000
  4046.37036       822.695          166.16000
  4039.22266       822.294          165.94000
  4032.08447       821.892          165.73000
  4024.95557       821.491          165.52000
  4017.83545       821.090          165.31000
  4010.72437       820.688          165.09000
  4003.62280       820.287          164.88000
  3996.53027       819.886          164.67000
  3989.44678       819.484          164.46001
  3982.37207       819.083          164.25000
  3975.30688       818.682          164.03999
  3968.25049       818.280          163.83000
  3961.20313       817.879          163.62000
  3954.16504       817.477          163.41000
  3947.13599       817.076          163.19000
  3940.11621       816.674          162.99001
  3933.10498       816.273          162.78000
  3926.10303       815.871          162.57001
  3919.11011       815.470          162.36000
  3912.12598       815.068          162.14999
  3905.15137       814.666          161.94000
  3898.18530       814.265          161.73000
  3891.22852       813.863          161.52000
  3884.28076       813.461          161.31000
  3877.34180       813.060          161.10001
  3870.41187       812.658          160.89000
  3863.49097       812.256          160.69000
  3856.57861       811.855          160.48000
  3849.67554       811.453          160.27000
  3842.78149       811.051          160.06000
  3835.89624       810.649          159.85001
  3829.02026       810.247          159.64999
  3822.15259       809.846          159.44000
  3815.29443       809.444          159.23000
  3808.44482       809.042          159.02000
  3801.60425       808.640          158.82001
  3794.77246       808.238          158.61000
  3787.94971       807.836          158.39999
  3781.13574       807.434          158.20000
  3774.33081       807.032          157.99001
  3767.53467       806.630          157.78999
  3760.74731       806.228          157.58000
  3753.96875       805.826          157.38000
  3747.19897       805.424          157.17000
  3740.43848       805.022          156.96001
  3733.68628       804.620          156.75999
  3726.94336       804.218          156.55000
  3720.20898       803.816          156.35001
  3713.48315       803.413          156.14999
  3706.76660       803.011          155.94000
  3700.05859       802.609          155.74001
  3693.35962       802.207          155.53000
  3686.66919       801.805          155.33000
  3679.98755       801.402          155.13000
  3673.31494       801.000          154.92000
  3666.65063       800.598          154.72000
  3659.99512       800.196          154.52000
  3653.34888       799.793          154.31000
  3646.71094       799.391          154.11000
  3640.08203       798.988          153.91000
  3633.46143       798.586          153.71001
  3626.84961       798.184          153.50000
  3620.24683       797.781          153.30000
  3613.65259       797.379          153.10001
  3607.06689       796.976          152.89999
  3600.48999       796.574          152.70000
  3593.92163       796.171          152.49001
  3587.36230       795.769          152.28999
  3580.81128       795.366          152.09000
  3574.26904       794.964          151.89000
  3567.73535       794.561          151.69000
  3561.21045       794.159          151.49001
  3554.69409       793.756          151.28999
  3548.18652       793.353          151.09000
  3541.68726       792.951          150.89000
  3535.19678       792.548          150.69000
  3528.71484       792.145          150.49001
  3522.24194       791.743          150.28999
  3515.77686       791.340          150.09000
  3509.32104       790.937          149.89000
  3502.87354       790.534          149.69000
  3496.43457       790.132          149.49001
  3490.00415       789.729          149.28999
  3483.58252       789.326          149.09000
  3477.16895       788.923          148.89999
  3470.76440       788.520          148.70000
  3464.36792       788.117          148.50000
  3457.98047       787.715          148.30000
  3451.60132       787.312          148.10001
  3445.23071       786.909          147.89999
  3438.86841       786.506          147.71001
  3432.51489       786.103          147.50999
  3426.16968       785.700          147.31000
  3419.83301       785.297          147.12000
  3413.50488       784.894          146.92000
  3407.18506       784.491          146.72000
  3400.87402       784.088          146.53000
  3394.57080       783.685          146.33000
  3388.27686       783.281          146.13000
  3381.99072       782.878          145.94000
  3375.71338       782.475          145.74001
  3369.44409       782.072          145.53999
  3363.18359       781.669          145.35001
  3356.93115       781.266          145.14999
  3350.68726       780.862          144.96001
  3344.45215       780.459          144.77000
  3338.22485       780.056          144.57001
  3332.00635       779.653          144.38000
  3325.79614       779.250          144.17999
  3319.59424       778.846          143.99001
  3313.40063       778.443          143.78999
  3307.21533       778.040          143.60001
  3301.03833       777.636          143.39999
  3294.87012       777.233          143.21001
  3288.70972       776.829          143.02000
  3282.55811       776.426          142.83000
  3276.41431       776.023          142.63000
  3270.27930       775.619          142.44000
  3264.15234       775.216          142.25000
  3258.03369       774.812          142.05000
  3251.92358       774.409          141.86000
  3245.82153       774.005          141.67000
  3239.72778       773.602          141.47000
  3233.64233       773.198          141.28000
  3227.56470       772.795          141.09000
  3221.49609       772.391          140.89999
  3215.43530       771.987          140.71001
  3209.38281       771.584          140.52000
  3203.33862       771.180          140.32001
  3197.30249       770.776          140.13000
  3191.27466       770.373          139.94000
  3185.25513       769.969          139.75000
  3179.24341       769.565          139.56000
  3173.24072       769.162          139.37000
  3167.24536       768.758          139.17999
  3161.25854       768.354          138.99001
  3155.28003       767.950          138.80000
  3149.30981       767.547          138.61000
  3143.34717       767.143          138.42000
  3137.39331       766.739          138.23000
  3131.44727       766.335          138.03999
  3125.50952       765.931          137.85001
  3119.57959       765.527          137.67000
  3113.65820       765.123          137.48000
  3107.74463       764.719          137.28999
  3101.83936       764.315          137.10001
  3095.94214       763.911          136.91000
  3090.05322       763.508          136.72000
  3084.17188       763.104          136.53999
  3078.29883       762.700          136.35001
  3072.43433       762.296          136.16000
  3066.57739       761.891          135.97000
  3060.72876       761.487          135.78000
  3054.88794       761.083          135.60001
  3049.05542       760.679          135.41000
  3043.23071       760.275          135.22000
  3037.41431       759.871          135.03999
  3031.60571       759.467          134.85001
  3025.80542       759.063          134.66000
  3020.01270       758.659          134.48000
  3014.22852       758.254          134.28999
  3008.45190       757.850          134.11000
  3002.68359       757.446          133.92000
  2996.92310       757.042          133.73000
  2991.17065       756.637          133.55000
  2985.42627       756.233          133.36000
  2979.68970       755.829          133.17999
  2973.96094       755.424          133.00000
  2968.24023       755.020          132.81000
  2962.52759       754.616          132.62000
  2956.82300       754.211          132.44000
  2951.12646       753.807          132.25999
  2945.43750       753.403          132.07001
  2939.75659       752.998          131.89000
  2934.08350       752.594          131.71001
  2928.41821       752.189          131.52000
  2922.76123       751.785          131.34000
  2917.11157       751.380          131.14999
  2911.47046       750.976          130.97000
  2905.83691       750.571          130.78999
  2900.21118       750.167          130.61000
  2894.59326       749.762          130.42000
  2888.98340       749.358          130.24001
  2883.38110       748.953          130.06000
  2877.78687       748.548          129.88000
  2872.20068       748.144          129.69000
  2866.62207       747.739          129.50999
  2861.05127       747.335          129.33000
  2855.48828       746.930          129.14999
  2849.93311       746.525          128.97000
  2844.38599       746.120          128.78999
  2838.84644       745.716          128.60001
  2833.31445       745.311          128.42000
  2827.79077       744.906          128.24001
  2822.27417       744.502          128.06000
  2816.76611       744.097          127.88000
  2811.26538       743.692          127.70000
  2805.77246       743.287          127.52000
  2800.28735       742.882          127.34000
  2794.80981       742.477          127.16000
  2789.34009       742.073          126.98000
  2783.87817       741.668          126.80000
  2778.42407       741.263          126.62000
  2772.97754       740.858          126.45000
  2767.53857       740.453          126.26000
  2762.10742       740.048          126.09000
  2756.68408       739.643          125.91000
  2751.26855       739.238          125.73000
  2745.86060       738.833          125.55000
  2740.46021       738.428          125.37000
  2735.06714       738.023          125.20000
  2729.68213       737.618          125.02000
  2724.30493       737.213          124.84000
  2718.93506       736.808          124.66000
  2713.57300       736.403          124.49000
  2708.21851       735.998          124.31000
  2702.87158       735.593          124.13000
  2697.53247       735.188          123.95000
  2692.20093       734.782          123.78000
  2686.87671       734.377          123.60000
  2681.56055       733.972          123.43000
  2676.25171       733.567          123.25000
  2670.95044       733.162          123.07000
  2665.65674       732.756          122.90000
  2660.37061       732.351          122.72000
  2655.09229       731.946          122.54000
  2649.82129       731.541          122.37000
  2644.55786       731.135          122.19000
  2639.30200       730.730          122.02000
  2634.05371       730.325          121.84000
  2628.81299       729.919          121.67000
  2623.57959       729.514          121.49000
  2618.35400       729.109          121.32000
  2613.13574       728.703          121.14000
  2607.92505       728.298          120.97000
  2602.72168       727.892          120.80000
  2597.52612       727.487          120.62000
  2592.33765       727.082          120.45000
  2587.15698       726.676          120.28000
  2581.98364       726.271          120.10000
  2576.81787       725.865          119.93000
  2571.65942       725.460          119.76000
  2566.50854       725.054          119.58000
  2561.36523       724.649          119.41000
  2556.22900       724.243          119.23000
  2551.10059       723.838          119.06000
  2545.97925       723.432          118.89000
  2540.86548       723.026          118.72000
  2535.75903       722.621          118.55000
  2530.66016       722.215          118.38000
  2525.56836       721.810          118.20000
  2520.48438       721.404          118.03000
  2515.40747       720.998          117.86000
  2510.33813       720.592          117.69000
  2505.27612       720.187          117.52000
  2500.22144       719.781          117.35000
  2495.17407       719.375          117.18000
  2490.13403       718.970          117.00000
  2485.10132       718.564          116.83000
  2480.07617       718.158          116.66000
  2475.05835       717.752          116.50000
  2470.04761       717.347          116.32000
  2465.04443       716.941          116.15000
  2460.04834       716.535          115.98000
  2455.05957       716.129          115.82000
  2450.07813       715.723          115.65000
  2445.10400       715.317          115.48000
  2440.13721       714.911          115.31000
  2435.17749       714.506          115.14000
  2430.22534       714.100          114.97000
  2425.28027       713.694          114.80000
  2420.34253       713.288          114.63000
  2415.41211       712.882          114.46000
  2410.48877       712.476          114.30000
  2405.57275       712.070          114.13000
  2400.66406       711.664          113.96000
  2395.76245       711.258          113.79000
  2390.86792       710.852          113.62000
  2385.98071       710.446          113.46000
  2381.10107       710.040          113.29000
  2376.22827       709.634          113.12000
  2371.36255       709.228          112.96000
  2366.50439       708.822          112.79000
  2361.65308       708.415          112.62000
  2356.80908       708.009          112.45000
  2351.97217       707.603          112.29000
  2347.14233       707.197          112.12000
  2342.32007       706.791          111.96000
  2337.50439       706.385          111.79000
  2332.69629       705.978          111.62000
  2327.89526       705.572          111.46000
  2323.10107       705.166          111.29000
  2318.31421       704.760          111.13000
  2313.53442       704.354          110.96000
  2308.76172       703.947          110.80000
  2303.99609       703.541          110.63000
  2299.23779       703.135          110.47000
  2294.48633       702.728          110.30000
  2289.74219       702.322          110.14000
  2285.00488       701.916          109.97000
  2280.27466       701.509          109.81000
  2275.55151       701.103          109.65000
  2270.83545       700.697          109.48000
  2266.12646       700.290          109.32000
  2261.42456       699.884          109.16000
  2256.72949       699.478          108.99000
  2252.04150       699.071          108.83000
  2247.36060       698.665          108.67000
  2242.68677       698.258          108.50000
  2238.02002       697.852          108.34000
  2233.36011       697.445          108.18000
  2228.70728       697.039          108.02000
  2224.06128       696.632          107.86000
  2219.42236       696.226          107.69000
  2214.79028       695.819          107.53000
  2210.16553       695.413          107.37000
  2205.54761       695.006          107.20000
  2200.93652       694.600          107.04000
  2196.33228       694.193          106.88000
  2191.73511       693.786          106.72000
  2187.14502       693.380          106.56000
  2182.56152       692.973          106.40000
  2177.98535       692.567          106.24000
  2173.41577       692.160          106.08000
  2168.85327       691.753          105.92000
  2164.29761       691.347          105.76000
  2159.74902       690.940          105.60000
  2155.20703       690.533          105.44000
  2150.67212       690.127          105.28000
  2146.14404       689.720          105.12000
  2141.62280       689.313          104.96000
  2137.10840       688.906          104.80000
  2132.60107       688.500          104.64000
  2128.10034       688.093          104.48000
  2123.60645       687.686          104.32000
  2119.11963       687.279          104.16000
  2114.63940       686.873          104.00000
  2110.16602       686.466          103.85000
  2105.69946       686.059          103.69000
  2101.23999       685.652          103.53000
  2096.78711       685.245          103.37000
  2092.34106       684.838          103.21000
  2087.90186       684.431          103.06000
  2083.46924       684.025          102.90000
  2079.04346       683.618          102.74000
  2074.62476       683.211          102.58000
  2070.21240       682.804          102.43000
  2065.80713       682.397          102.27000
  2061.40845       681.990          102.11000
  2057.01660       681.583          101.96000
  2052.63135       681.176          101.80000
  2048.25293       680.769          101.64000
  2043.88123       680.362          101.49000
  2039.51636       679.955          101.33000
  2035.15808       679.548          101.18000
  2030.80652       679.141          101.02000
  2026.46179       678.734          100.86000
  2022.12354       678.327          100.71000
  2017.79211       677.920          100.55000
  2013.46741       677.513          100.40000
  2009.14929       677.106          100.24000
  2004.83789       676.698          100.09000
  2000.53308       676.291           99.93100
  1996.23499       675.884           99.77600
  1991.94348       675.477           99.62100
  1987.65894       675.070           99.47000
  1983.38062       674.663           99.31500
  1979.10913       674.256           99.16000
  1974.84436       673.848           99.00500
  1970.58606       673.441           98.85300
  1966.33435       673.034           98.69800
  1962.08923       672.627           98.54600
  1957.85083       672.220           98.39400
  1953.61902       671.812           98.23900
  1949.39380       671.405           98.08600
  1945.17505       670.998           97.93400
  1940.96301       670.591           97.78200
  1936.75745       670.183           97.63000
  1932.55859       669.776           97.47700
  1928.36609       669.369           97.32500
  1924.18030       668.961           97.17200
  1920.00098       668.554           97.01900
  1915.82813       668.147           96.86600
  1911.66187       667.739           96.71700
  1907.50220       667.332           96.56400
  1903.34912       666.924           96.41100
  1899.20239       666.517           96.26200
  1895.06226       666.110           96.11200
  1890.92847       665.702           95.95900
  1886.80139       665.295           95.80900
  1882.68066       664.887           95.65900
  1878.56653       664.480           95.50900
  1874.45874       664.073           95.35900
  1870.35742       663.665           95.20900
  1866.26270       663.258           95.05800
  1862.17444       662.850           94.90800
  1858.09253       662.443           94.75800
  1854.01697       662.035           94.60700
  1849.94800       661.628           94.45600
  1845.88550       661.220           94.30900
  1841.82922       660.813           94.15900
  1837.77954       660.405           94.01100
  1833.73621       659.997           93.86000
  1829.69934       659.590           93.71300
  1825.66882       659.182           93.56500
  1821.64465       658.775           93.41400
  1817.62683       658.367           93.26600
  1813.61572       657.959           93.11900
  1809.61060       657.552           92.97100
  1805.61206       657.144           92.82300
  1801.61987       656.736           92.67500
  1797.63391       656.329           92.52700
  1793.65442       655.921           92.38200
  1789.68115       655.513           92.23400
  1785.71423       655.106           92.08600
  1781.75378       654.698           91.94100
  1777.79956       654.290           91.79200
  1773.85168       653.883           91.64700
  1769.91003       653.475           91.49900
  1765.97485       653.067           91.35300
  1762.04590       652.659           91.20500
  1758.12317       652.252           91.05900
  1754.20691       651.844           90.91400
  1750.29675       651.436           90.76800
  1746.39294       651.028           90.62300
  1742.49536       650.621           90.47700
  1738.60413       650.213           90.33100
  1734.71899       649.805           90.18600
  1730.84033       649.397           90.04000
  1726.96765       648.989           89.89700
  1723.10144       648.581           89.75100
  1719.24133       648.174           89.60500
  1715.38757       647.766           89.46200
  1711.53979       647.358           89.31600
  1707.69836       646.950           89.17300
  1703.86316       646.542           89.03100
  1700.03418       646.134           88.88400
  1696.21155       645.726           88.74100
  1692.39490       645.318           88.59800
  1688.58447       644.910           88.45500
  1684.78015       644.502           88.31100
  1680.98206       644.094           88.16800
  1677.19006       643.686           88.02500
  1673.40430       643.278           87.88100
  1669.62476       642.870           87.73700
  1665.85120       642.462           87.59800
  1662.08398       642.054           87.45400
  1658.32275       641.646           87.31000
  1654.56763       641.238           87.17000
  1650.81873       640.830           87.02600
  1647.07581       640.422           86.88500
  1643.33923       640.014           86.74100
  1639.60852       639.606           86.60000
  1635.88403       639.198           86.46000
  1632.16565       638.790           86.31900
  1628.45313       638.382           86.17800
  1624.74683       637.974           86.03400
  1621.04675       637.566           85.89300
  1617.35266       637.158           85.75500
  1613.66443       636.750           85.61400
  1609.98242       636.341           85.47300
  1606.30652       635.933           85.33200
  1602.63647       635.525           85.19000
  1598.97266       635.117           85.05300
  1595.31470       634.709           84.91100
  1591.66284       634.301           84.77300
  1588.01709       633.892           84.63100
  1584.37732       633.484           84.49300
  1580.74353       633.076           84.35100
  1577.11572       632.668           84.21300
  1573.49377       632.260           84.07500
  1569.87793       631.851           83.93600
  1566.26819       631.443           83.79800
  1562.66418       631.035           83.65900
  1559.06628       630.626           83.52100
  1555.47437       630.218           83.38200
  1551.88831       629.810           83.24300
  1548.30835       629.402           83.10400
  1544.73413       628.993           82.96500
  1541.16589       628.585           82.83000
  1537.60364       628.177           82.69100
  1534.04736       627.768           82.55100
  1530.49707       627.360           82.41600
  1526.95264       626.952           82.28000
  1523.41394       626.543           82.14100
  1519.88123       626.135           82.00500
  1516.35461       625.727           81.86900
  1512.83362       625.318           81.72900
  1509.31873       624.910           81.59300
  1505.80945       624.501           81.45700
  1502.30627       624.093           81.32100
  1498.80884       623.685           81.18500
  1495.31726       623.276           81.04800
  1491.83167       622.868           80.91200
  1488.35181       622.459           80.77900
  1484.87781       622.051           80.64300
  1481.40955       621.642           80.50600
  1477.94739       621.234           80.36900
  1474.49084       620.826           80.23600
  1471.04016       620.417           80.09900
  1467.59534       620.009           79.96600
  1464.15613       619.600           79.83300
  1460.72290       619.192           79.69500
  1457.29553       618.783           79.56200
  1453.87378       618.375           79.42900
  1450.45789       617.966           79.29500
  1447.04773       617.557           79.15700
  1443.64331       617.149           79.02400
  1440.24475       616.740           78.89000
  1436.85181       616.332           78.76000
  1433.46484       615.923           78.62600
  1430.08337       615.515           78.49100
  1426.70789       615.106           78.35700
  1423.33789       614.697           78.22300
  1419.97375       614.289           78.09300
  1416.61536       613.880           77.95800
  1413.26257       613.472           77.82700
  1409.91565       613.063           77.69300
  1406.57422       612.654           77.56200
  1403.23877       612.246           77.42700
  1399.90881       611.837           77.29600
  1396.58447       611.428           77.16500
  1393.26587       611.020           77.03400
  1389.95313       610.611           76.90300
  1386.64587       610.202           76.76800
  1383.34436       609.794           76.63600
  1380.04846       609.385           76.50500
  1376.75830       608.976           76.37700
  1373.47363       608.568           76.24500
  1370.19458       608.159           76.11400
  1366.92126       607.750           75.98200
  1363.65356       607.341           75.85400
  1360.39148       606.933           75.72200
  1357.13501       606.524           75.59000
  1353.88416       606.115           75.46200
  1350.63892       605.706           75.32900
  1347.39917       605.298           75.20100
  1344.16516       604.889           75.07300
  1340.93652       604.480           74.94000
  1337.71362       604.071           74.81200
  1334.49634       603.662           74.68300
  1331.28455       603.254           74.55400
  1328.07837       602.845           74.42500
  1324.87756       602.436           74.29600
  1321.68250       602.027           74.16700
  1318.49292       601.618           74.03800
  1315.30884       601.209           73.90900
  1312.13037       600.800           73.78000
  1308.95740       600.392           73.65400
  1305.78992       599.983           73.52500
  1302.62805       599.574           73.39500
  1299.47156       599.165           73.27000
  1296.32068       598.756           73.14000
  1293.17517       598.347           73.01400
  1290.03516       597.938           72.88400
  1286.90076       597.529           72.75800
  1283.77173       597.120           72.63200
  1280.64819       596.711           72.50200
  1277.53015       596.302           72.37600
  1274.41760       595.893           72.25000
  1271.31042       595.485           72.12300
  1268.20874       595.076           71.99700
  1265.11243       594.667           71.87000
  1262.02173       594.258           71.74400
  1258.93628       593.849           71.61700
  1255.85632       593.440           71.49400
  1252.78174       593.031           71.36700
  1249.71265       592.622           71.24000
  1246.64893       592.213           71.11300
  1243.59070       591.804           70.99000
  1240.53772       591.395           70.86300
  1237.49011       590.985           70.74000
  1234.44812       590.576           70.61300
  1231.41125       590.167           70.48900
  1228.37988       589.758           70.36600
  1225.35388       589.349           70.24200
  1222.33325       588.940           70.11400
  1219.31787       588.531           69.99100
  1216.30786       588.122           69.86700
  1213.30334       587.713           69.74300
  1210.30408       587.304           69.61900
  1207.31006       586.895           69.49500
  1204.32141       586.486           69.37100
  1201.33813       586.076           69.24700
  1198.36011       585.667           69.12700
  1195.38757       585.258           69.00200
  1192.42017       584.849           68.87800
  1189.45813       584.440           68.75700
  1186.50122       584.031           68.63300
  1183.54980       583.621           68.50800
  1180.60352       583.212           68.38700
  1177.66260       582.803           68.26600
  1174.72693       582.394           68.14100
  1171.79651       581.985           68.02000
  1168.87134       581.575           67.89900
  1165.95142       581.166           67.77800
  1163.03674       580.757           67.65300
  1160.12732       580.348           67.53200
  1157.22314       579.939           67.41000
  1154.32422       579.529           67.28900
  1151.43042       579.120           67.16800
  1148.54187       578.711           67.04600
  1145.65869       578.302           66.92800
  1142.78052       577.892           66.80700
  1139.90759       577.483           66.68500
  1137.03992       577.074           66.56300
  1134.17737       576.664           66.44500
  1131.31995       576.255           66.32300
  1128.46790       575.846           66.20500
  1125.62085       575.436           66.08300
  1122.77905       575.027           65.96500
  1119.94226       574.618           65.84200
  1117.11084       574.208           65.72400
  1114.28442       573.799           65.60500
  1111.46326       573.390           65.48700
  1108.64709       572.980           65.36400
  1105.83618       572.571           65.24500
  1103.03027       572.162           65.12700
  1100.22949       571.752           65.00800
  1097.43396       571.343           64.88900
  1094.64343       570.933           64.77000
  1091.85803       570.524           64.65500
  1089.07764       570.115           64.53600
  1086.30249       569.705           64.41700
  1083.53235       569.296           64.29700
  1080.76733       568.886           64.18200
  1078.00732       568.477           64.06300
  1075.25244       568.067           63.94800
  1072.50256       567.658           63.82800
  1069.75781       567.249           63.71200
  1067.01794       566.839           63.59300
  1064.28333       566.430           63.47700
  1061.55359       566.020           63.36100
  1058.82898       565.611           63.24100
  1056.10950       565.201           63.12500
  1053.39478       564.792           63.00900
  1050.68530       564.382           62.89300
  1047.98071       563.973           62.77700
  1045.28113       563.563           62.66100
  1042.58655       563.154           62.54500
  1039.89709       562.744           62.42800
  1037.21252       562.334           62.31200
  1034.53284       561.925           62.19500
  1031.85828       561.515           62.08300
  1029.18860       561.106           61.96600
  1026.52393       560.696           61.84900
  1023.86426       560.287           61.73700
  1021.20941       559.877           61.62000
  1018.55969       559.467           61.50700
  1015.91479       559.058           61.39000
  1013.27490       558.648           61.27700
  1010.63983       558.239           61.16000
  1008.00977       557.829           61.04700
  1005.38464       557.419           60.93300
  1002.76434       557.010           60.82000
  1000.14905       556.600           60.70300
   997.53857       556.190           60.58900
   994.93304       555.781           60.47500
   992.33240       555.371           60.36100
   989.73663       554.961           60.24800
   987.14575       554.552           60.13500
   984.55975       554.142           60.02100
   981.97864       553.732           59.90800
   979.40240       553.323           59.79500
   976.83093       552.913           59.68300
   974.26440       552.503           59.57000
   971.70270       552.093           59.45700
   969.14581       551.684           59.34500
   966.59375       551.274           59.23300
   964.04657       550.864           59.12100
   961.50421       550.454           59.00800
   958.96661       550.045           58.89700
   956.43390       549.635           58.78500
   953.90601       549.225           58.67300
   951.38287       548.816           58.56200
   948.86450       548.406           58.45000
   946.35095       547.997           58.33900
   943.84222       547.587           58.22800
   941.33826       547.177           58.11700
   938.83905       546.768           58.00600
   936.34454       546.358           57.89500
   933.85498       545.948           57.78500
   931.37000       545.539           57.67400
   928.88983       545.129           57.56400
   926.41449       544.719           57.45300
   923.94379       544.310           57.34300
   921.47784       543.900           57.23400
   919.01666       543.490           57.12400
   916.56018       543.081           57.01400
   914.10840       542.671           56.90400
   911.66138       542.261           56.79500
   909.21906       541.852           56.68600
   906.78143       541.442           56.57600
   904.34845       541.032           56.46700
   901.92023       540.622           56.35800
   899.49664       540.213           56.25000
   897.07782       539.803           56.14100
   894.66357       539.393           56.03200
   892.25409       538.983           55.92400
   889.84918       538.574           55.81600
   887.44904       538.164           55.70800
   885.05347       537.754           55.59900
   882.66254       537.344           55.49100
   880.27631       536.935           55.38400
   877.89465       536.525           55.27600
   875.51770       536.115           55.16900
   873.14526       535.705           55.06100
   870.77753       535.295           54.95400
   868.41443       534.885           54.84700
   866.05591       534.476           54.74000
   863.70203       534.066           54.63300
   861.35266       533.656           54.52600
   859.00793       533.246           54.42000
   856.66779       532.836           54.31300
   854.33221       532.426           54.20600
   852.00122       532.017           54.10000
   849.67480       531.607           53.99400
   847.35297       531.197           53.88800
   845.03571       530.787           53.78300
   842.72296       530.377           53.67600
   840.41473       529.967           53.57100
   838.11115       529.557           53.46500
   835.81201       529.147           53.36000
   833.51746       528.737           53.25500
   831.22736       528.327           53.15000
   828.94183       527.918           53.04500
   826.66089       527.508           52.94000
   824.38440       527.098           52.83500
   822.11243       526.688           52.73000
   819.84491       526.278           52.62600
   817.58191       525.868           52.52200
   815.32336       525.458           52.41700
   813.06934       525.048           52.31300
   810.81982       524.638           52.21000
   808.57471       524.228           52.10500
   806.33417       523.818           52.00200
   804.09802       523.408           51.89800
   801.86633       522.998           51.79500
   799.63904       522.588           51.69200
   797.41626       522.178           51.58800
   795.19794       521.768           51.48500
   792.98401       521.358           51.38200
   790.77448       520.948           51.27900
   788.56946       520.538           51.17700
   786.36877       520.128           51.07400
   784.17255       519.718           50.97200
   781.98071       519.308           50.86900
   779.79327       518.897           50.76700
   777.61029       518.487           50.66500
   775.43170       518.077           50.56300
   773.25745       517.667           50.46100
   771.08752       517.257           50.36000
   768.92206       516.847           50.25800
   766.76086       516.437           50.15600
   764.60419       516.027           50.05500
   762.45178       515.617           49.95400
   760.30365       515.207           49.85300
   758.15997       514.796           49.75200
   756.02063       514.386           49.65100
   753.88568       513.976           49.55100
   751.75494       513.566           49.45000
   749.62854       513.156           49.34900
   747.50653       512.746           49.24900
   745.38885       512.336           49.14900
   743.27545       511.925           49.04900
   741.16632       511.515           48.94900
   739.06152       511.105           48.84900
   736.96106       510.695           48.74900
   734.86481       510.285           48.64900
   732.77289       509.874           48.55000
   730.68518       509.464           48.45100
   728.60187       509.054           48.35200
   726.52271       508.644           48.25200
   724.44781       508.233           48.15400
   722.37720       507.823           48.05500
   720.31085       507.413           47.95600
   718.24878       507.003           47.85700
   716.19098       506.592           47.75900
   714.13727       506.182           47.66100
   712.08789       505.772           47.56200
   710.04272       505.362           47.46400
   708.00183       504.951           47.36600
   705.96515       504.541           47.26900
   703.93256       504.131           47.17100
   701.90424       503.721           47.07300
   699.88019       503.310           46.97600
   697.86017       502.900           46.87800
   695.84448       502.490           46.78100
   693.83289       502.079           46.68400
   691.82550       501.669           46.58700
   689.82233       501.259           46.49000
   687.82330       500.848           46.39300
   685.82843       500.438           46.29700
   683.83771       500.028           46.20000
   681.85114       499.617           46.10400
   679.86871       499.207           46.00800
   677.89038       498.796           45.91100
   675.91626       498.386           45.81600
   673.94623       497.976           45.72000
   671.98041       497.565           45.62400
   670.01862       497.155           45.52800
   668.06091       496.744           45.43300
   666.10742       496.334           45.33700
   664.15790       495.924           45.24200
   662.21259       495.513           45.14700
   660.27130       495.103           45.05200
   658.33417       494.692           44.95700
   656.40106       494.282           44.86200
   654.47211       493.871           44.76700
   652.54718       493.461           44.67300
   650.62628       493.050           44.57900
   648.70947       492.640           44.48400
   646.79669       492.229           44.39000
   644.88800       491.819           44.29600
   642.98334       491.408           44.20200
   641.08276       490.998           44.10800
   639.18616       490.587           44.01500
   637.29364       490.177           43.92100
   635.40509       489.766           43.82800
   633.52063       489.356           43.73400
   631.64014       488.945           43.64100
   629.76361       488.535           43.54800
   627.89117       488.124           43.45500
   626.02271       487.714           43.36200
   624.15820       487.303           43.26900
   622.29773       486.893           43.17700
   620.44122       486.482           43.08400
   618.58868       486.071           42.99200
   616.74011       485.661           42.90000
   614.89551       485.250           42.80800
   613.05493       484.840           42.71500
   611.21826       484.429           42.62400
   609.38550       484.018           42.53200
   607.55676       483.608           42.44000
   605.73193       483.197           42.34900
   603.91101       482.787           42.25700
   602.09406       482.376           42.16600
   600.28101       481.965           42.07500
   598.47192       481.555           41.98400
   596.66675       481.144           41.89300
   594.86542       480.733           41.80200
   593.06805       480.323           41.71200
   591.27454       479.912           41.62100
   589.48499       479.501           41.53100
   587.69928       479.091           41.44000
   585.91742       478.680           41.35000
   584.13953       478.269           41.26000
   582.36548       477.858           41.17000
   580.59528       477.448           41.08000
   578.82898       477.037           40.99100
   577.06647       476.626           40.90100
   575.30786       476.215           40.81100
   573.55310       475.805           40.72200
   571.80219       475.394           40.63300
   570.05511       474.983           40.54400
   568.31189       474.572           40.45500
   566.57245       474.162           40.36600
   564.83685       473.751           40.27700
   563.10510       473.340           40.18900
   561.37714       472.929           40.10000
   559.65295       472.518           40.01100
   557.93262       472.108           39.92300
   556.21606       471.697           39.83500
   554.50330       471.286           39.74700
   552.79431       470.875           39.65900
   551.08911       470.464           39.57100
   549.38770       470.053           39.48400
   547.69006       469.643           39.39600
   545.99615       469.232           39.30900
   544.30603       468.821           39.22100
   542.61969       468.410           39.13400
   540.93707       467.999           39.04700
   539.25824       467.588           38.96000
   537.58313       467.177           38.87300
   535.91174       466.767           38.78600
   534.24408       466.356           38.69900
   532.58014       465.945           38.61300
   530.91998       465.534           38.52700
   529.26343       465.123           38.44000
   527.61066       464.712           38.35400
   525.96161       464.301           38.26800
   524.31622       463.890           38.18300
   522.67456       463.479           38.09600
   521.03662       463.068           38.01100
   519.40228       462.657           37.92500
   517.77167       462.246           37.84000
   516.14471       461.835           37.75400
   514.52142       461.424           37.66900
   512.90186       461.013           37.58400
   511.28592       460.602           37.49900
   509.67361       460.191           37.41400
   508.06497       459.780           37.32900
   506.45999       459.369           37.24500
   504.85864       458.958           37.16100
   503.26093       458.547           37.07600
   501.66684       458.136           36.99200
   500.07635       457.725           36.90800
   498.48953       457.314           36.82400
   496.90628       456.903           36.74000
   495.32669       456.492           36.65600
   493.75067       456.081           36.57200
   491.93472       455.712           36.45200
   490.06613       455.353           36.32500
   488.20465       454.994           36.19800
   486.35031       454.636           36.07100
   484.50308       454.277           35.94500
   482.66293       453.919           35.81900
   480.82980       453.561           35.69400
   479.00369       453.203           35.56900
   477.18451       452.846           35.44400
   475.37234       452.488           35.32100
   473.56708       452.131           35.19800
   471.76877       451.774           35.07500
   469.97729       451.417           34.95200
   468.19263       451.060           34.83000
   466.41479       450.703           34.70800
   464.64380       450.347           34.58700
   462.87952       449.991           34.46700
   461.12201       449.635           34.34600
   459.37119       449.279           34.22700
   457.62708       448.923           34.10800
   455.88959       448.567           33.98900
   454.15881       448.212           33.87100
   452.43457       447.857           33.75200
   450.71692       447.502           33.63500
   449.00580       447.147           33.51800
   447.30124       446.792           33.40100
   445.60315       446.437           33.28500
   443.91156       446.083           33.17000
   442.22644       445.729           33.05500
   440.54773       445.374           32.94000
   438.87540       445.020           32.82600
   437.20944       444.667           32.71100
   435.54984       444.313           32.59800
   433.89655       443.959           32.48500
   432.24960       443.606           32.37200
   430.60889       443.253           32.26000
   428.97443       442.900           32.14800
   427.34619       442.547           32.03700
   425.72415       442.194           31.92500
   424.10831       441.841           31.81500
   422.49860       441.489           31.70500
   420.89499       441.136           31.59500
   419.29752       440.784           31.48600
   417.70612       440.432           31.37700
   416.12076       440.080           31.26900
   414.54144       439.728           31.16000
   412.96811       439.376           31.05300
   411.40076       439.025           30.94600
   409.83939       438.673           30.83900
   408.28397       438.322           30.73200
   406.73441       437.971           30.62600
   405.19077       437.620           30.52100
   403.65302       437.269           30.41500
   402.12103       436.918           30.31100
   400.59491       436.567           30.20600
   399.07455       436.217           30.10200
   397.56000       435.866           29.99900
   396.05121       435.516           29.89500
   394.54813       435.166           29.79300
   393.05075       434.816           29.69000
   391.55905       434.466           29.58800
   390.07300       434.116           29.48600
   388.59259       433.766           29.38500
   387.11780       433.417           29.28400
   385.64859       433.067           29.18300
   384.18497       432.718           29.08300
   382.72687       432.369           28.98400
   381.27432       432.020           28.88400
   379.82727       431.671           28.78500
   378.38568       431.322           28.68700
   376.94958       430.973           28.58800
   375.51892       430.624           28.49000
   374.09363       430.276           28.39200
   372.67380       429.927           28.29500
   371.25931       429.579           28.19900
   369.85016       429.230           28.10200
   368.44635       428.882           28.00600
   367.04788       428.534           27.91100
   365.65469       428.186           27.81500
   364.26675       427.838           27.72000
   362.88409       427.491           27.62500
   361.50659       427.143           27.53100
   360.13437       426.795           27.43700
   358.76733       426.448           27.34400
   357.40540       426.100           27.25100
   356.04865       425.753           27.15800
   354.69705       425.406           27.06500
   353.35052       425.059           26.97300
   352.00909       424.712           26.88100
   350.67273       424.365           26.79000
   349.34137       424.018           26.69900
   348.01508       423.671           26.60800
   346.69376       423.324           26.51700
   345.37747       422.978           26.42800
   344.06613       422.631           26.33800
   342.75974       422.285           26.24800
   341.45825       421.938           26.15900
   340.16168       421.592           26.07000
   338.87000       421.246           25.98200
   337.58316       420.900           25.89400
   336.30121       420.553           25.80600
   335.02405       420.207           25.71900
   333.75174       419.861           25.63200
   332.48419       419.516           25.54500
   331.22144       419.170           25.45900
   329.96341       418.824           25.37200
   328.71017       418.478           25.28700
   327.46161       418.133           25.20100
   326.21774       417.787           25.11600
   324.97855       417.442           25.03200
   323.74402       417.096           24.94700
   322.51413       416.751           24.86300
   321.28891       416.406           24.77900
   320.06824       416.061           24.69600
   318.85217       415.716           24.61200
   317.64069       415.371           24.52900
   316.43375       415.025           24.44700
   315.23132       414.681           24.36500
   314.03342       414.336           24.28200
   312.84003       413.991           24.20100
   311.65109       413.646           24.12000
   310.46664       413.301           24.03900
   309.28665       412.957           23.95800
   308.11105       412.612           23.87700
   306.93985       412.267           23.79700
   305.77307       411.923           23.71700
   304.61066       411.578           23.63800
   303.45261       411.234           23.55900
   302.29889       410.889           23.48000
   301.14948       410.545           23.40100
   300.00439       410.201           23.32300
   298.86359       409.856           23.24500
   297.72705       409.512           23.16800
   296.59479       409.168           23.09000
   295.46674       408.824           23.01300
   294.34293       408.480           22.93600
   293.22330       408.136           22.85900
   292.10788       407.792           22.78300
   290.99661       407.448           22.70700
   289.88953       407.104           22.63100
   288.78656       406.760           22.55600
   287.68771       406.416           22.48100
   286.59299       406.072           22.40600
   285.50232       405.728           22.33100
   284.41574       405.384           22.25700
   283.33322       405.040           22.18300
   282.25473       404.697           22.10900
   281.18027       404.353           22.03600
   280.10983       404.009           21.96300
   279.04337       403.666           21.89000
   277.98090       403.322           21.81700
   276.92239       402.978           21.74500
   275.86780       402.635           21.67300
   274.81717       402.291           21.60100
   273.77045       401.947           21.52900
   272.72760       401.604           21.45800
   271.68866       401.260           21.38700
   270.65359       400.917           21.31600
   269.62234       400.573           21.24600
   268.59497       400.230           21.17500
   267.57138       399.886           21.10600
   266.55161       399.543           21.03600
   265.53568       399.199           20.96700
   264.52347       398.856           20.89700
   263.51501       398.513           20.82900
   262.51035       398.169           20.76000
   261.50937       397.826           20.69100
   260.51215       397.482           20.62300
   259.51859       397.139           20.55500
   258.52875       396.795           20.48800
   257.54257       396.452           20.42000
   256.56006       396.109           20.35300
   255.58118       395.765           20.28600
   254.60594       395.422           20.22000
   253.63429       395.078           20.15300
   252.66628       394.735           20.08800
   251.70181       394.392           20.02100
   250.74097       394.048           19.95600
   249.78365       393.705           19.89000
   248.82986       393.362           19.82500
   247.87962       393.018           19.76000
   246.93291       392.675           19.69500
   245.98965       392.331           19.63100
   245.04993       391.988           19.56700
   244.11366       391.644           19.50300
   243.18085       391.301           19.43900
   242.25148       390.957           19.37600
   241.32556       390.614           19.31300
   240.40305       390.271           19.24900
   239.48393       389.927           19.18700
   238.56822       389.584           19.12400
   237.65588       389.240           19.06200
   236.74690       388.896           19.00000
   235.84128       388.553           18.93800
   234.93900       388.209           18.87700
   234.04004       387.866           18.81500
   233.14438       387.522           18.75400
   232.25204       387.178           18.69300
   231.36296       386.835           18.63200
   230.47716       386.491           18.57200
   229.59462       386.147           18.51100
   228.71532       385.804           18.45200
   227.83926       385.460           18.39200
   226.96642       385.116           18.33200
   226.09679       384.772           18.27300
   225.23035       384.429           18.21400
   224.36708       384.085           18.15500
   223.50700       383.741           18.09600
   222.65005       383.397           18.03800
   221.79626       383.053           17.98000
   220.94560       382.709           17.92200
   220.09804       382.365           17.86300
   219.25360       382.021           17.80500
   218.41226       381.677           17.74800
   217.57401       381.333           17.69100
   216.73880       380.989           17.63400
   215.90666       380.644           17.57700
   215.07756       380.300           17.52100
   214.25148       379.956           17.46400
   213.42844       379.612           17.40800
   212.60840       379.267           17.35200
   211.79134       378.923           17.29600
   210.97728       378.578           17.24100
   210.16620       378.234           17.18600
   209.35806       377.889           17.13000
   208.55289       377.545           17.07500
   207.75064       377.200           17.02100
   206.95129       376.856           16.96600
   206.15491       376.511           16.91100
   205.36137       376.166           16.85700
   204.57076       375.821           16.80300
   203.78302       375.477           16.75000
   202.99814       375.132           16.69600
   202.21613       374.787           16.64300
   201.43694       374.442           16.59000
   200.66058       374.097           16.53700
   199.88705       373.752           16.48400
   199.11633       373.406           16.43200
   198.34840       373.061           16.37900
   197.58328       372.716           16.32600
   196.82091       372.371           16.27500
   196.06133       372.025           16.22300
   195.30446       371.680           16.17100
   194.55035       371.335           16.12000
   193.79898       370.989           16.06800
   193.05034       370.643           16.01700
   192.30438       370.298           15.96600
   191.56114       369.952           15.91500
   190.82059       369.606           15.86500
   190.08270       369.260           15.81400
   189.34747       368.915           15.76500
   188.61491       368.569           15.71400
   187.88499       368.223           15.66400
   187.15770       367.877           15.61500
   186.43304       367.530           15.56500
   185.71100       367.184           15.51600
   184.99155       366.838           15.46700
   184.27467       366.492           15.41800
   183.56039       366.145           15.36900
   182.84869       365.799           15.32100
   182.13956       365.452           15.27200
   181.43295       365.106           15.22400
   180.72890       364.759           15.17600
   180.02737       364.412           15.12800
   179.32835       364.065           15.08000
   178.63187       363.718           15.03200
   177.93787       363.371           14.98500
   177.24634       363.024           14.93800
   176.55733       362.677           14.89100
   175.87074       362.330           14.84400
   175.18665       361.983           14.79700
   174.50497       361.635           14.75000
   173.82576       361.288           14.70500
   173.14899       360.941           14.65800
   172.47459       360.593           14.61200
   171.80264       360.245           14.56600
   171.13309       359.898           14.52000
   170.46590       359.550           14.47500
   169.80112       359.202           14.42900
   169.13870       358.854           14.38400
   168.47864       358.506           14.33900
   167.82094       358.158           14.29400
   167.16557       357.810           14.24900
   166.51254       357.461           14.20400
   165.86183       357.113           14.16000
   165.21344       356.765           14.11500
   164.56735       356.416           14.07100
   163.92355       356.067           14.02700
   163.28204       355.719           13.98300
   162.64282       355.370           13.93900
   162.00586       355.021           13.89600
   161.37115       354.672           13.85200
   160.73871       354.323           13.80900
   160.10849       353.974           13.76600
   159.48051       353.625           13.72300
   158.85477       353.275           13.68000
   158.23122       352.926           13.63700
   157.60986       352.577           13.59500
   156.99072       352.227           13.55200
   156.37376       351.877           13.51000
   155.75899       351.528           13.46800
   155.14639       351.178           13.42600
   154.53593       350.828           13.38400
   153.92764       350.478           13.34300
   153.32149       350.128           13.30100
   152.71747       349.778           13.26000
   152.11559       349.427           13.21800
   151.51579       349.077           13.17700
   150.91814       348.726           13.13600
   150.32259       348.376           13.09500
   149.72910       348.025           13.05400
   149.13771       347.674           13.01400
   148.54840       347.324           12.97300
   147.96117       346.973           12.93300
   147.37598       346.622           12.89300
   146.79283       346.270           12.85300
   146.21175       345.919           12.81300
   145.63268       345.568           12.77300
   145.05565       345.216           12.73400
   144.48064       344.865           12.69400
   143.90762       344.513           12.65500
   143.33662       344.162           12.61500
   142.76761       343.810           12.57600
   142.20059       343.458           12.53700
   141.63554       343.106           12.49900
   141.07246       342.754           12.45900
   140.51135       342.401           12.42100
   139.95219       342.049           12.38200
   139.39497       341.697           12.34400
   138.83971       341.344           12.30600
   138.28636       340.992           12.26800
   137.73494       340.639           12.22900
   137.18542       340.286           12.19200
   136.63783       339.933           12.15400
   136.09213       339.580           12.11600
   135.54832       339.227           12.07900
   135.00642       338.874           12.04200
   134.46638       338.520           12.00400
   133.92821       338.167           11.96700
   133.39191       337.814           11.93000
   132.85745       337.460           11.89300
   132.32484       337.106           11.85600
   131.79408       336.752           11.81900
   131.26517       336.398           11.78300
   130.73807       336.044           11.74700
   130.21278       335.690           11.71000
   129.68932       335.336           11.67400
   129.16763       334.982           11.63800
   128.64778       334.627           11.60200
   128.12970       334.273           11.56600
   127.61341       333.918           11.53000
   127.09889       333.563           11.49500
   126.58615       333.208           11.45900
   126.07517       332.853           11.42400
   125.56594       332.498           11.38800
   125.05846       332.143           11.35300
   124.55273       331.788           11.31800
   124.04873       331.432           11.28300
   123.54646       331.077           11.24800
   123.04591       330.721           11.21300
   122.54708       330.365           11.17900
   122.04995       330.010           11.14400
   121.55453       329.654           11.10900
   121.06080       329.298           11.07500
   120.56877       328.941           11.04100
   120.07841       328.585           11.00700
   119.58973       328.229           10.97300
   119.10272       327.872           10.93900
   118.61737       327.516           10.90500
   118.13368       327.159           10.87100
   117.65164       326.802           10.83700
   117.17124       326.445           10.80400
   116.69248       326.088           10.77000
   116.21536       325.731           10.73700
   115.73985       325.374           10.70400
   115.26597       325.017           10.67100
   114.79370       324.659           10.63800
   114.32303       324.302           10.60500
   113.85397       323.944           10.57200
   113.38650       323.586           10.53900
   112.92061       323.229           10.50700
   112.45631       322.871           10.47400
   111.99359       322.512           10.44100
   111.53244       322.154           10.40900
   111.07285       321.796           10.37700
   110.61482       321.438           10.34400
   110.15834       321.079           10.31300
   109.70341       320.720           10.28000
   109.25002       320.362           10.24900
   108.79816       320.003           10.21700
   108.34784       319.644           10.18500
   107.89904       319.285           10.15400
   107.45176       318.926           10.12200
   107.00599       318.567           10.09100
   106.56172       318.207           10.05900
   106.11896       317.848           10.02800
   105.67769       317.488            9.99710
   105.23792       317.128            9.96600
   104.79963       316.769            9.93490
   104.36282       316.409            9.90380
   103.92748       316.049            9.87330
   103.49361       315.689            9.84220
   103.06120       315.328            9.81170
   102.63026       314.968            9.78120
   102.20076       314.608            9.75070
   101.77271       314.247            9.72020
   101.34611       313.887            9.69030
   100.92094       313.526            9.65980
   100.49720       313.165            9.62990
   100.07489       312.804            9.59930
    99.65400       312.443            9.57010
    99.23453       312.082            9.54020
    98.81647       311.720            9.51030
    98.39981       311.359            9.48030
    97.98456       310.998            9.45100
    97.57070       310.636            9.42110
    97.15824       310.274            9.39180
    96.74716       309.913            9.36240
    96.33746       309.551            9.33310
    95.92914       309.189            9.30370
    95.52219       308.827            9.27440
    95.11660       308.464            9.24570
    94.71238       308.102            9.21630
    94.30952       307.740            9.18760
    93.90801       307.377            9.15880
    93.50785       307.014            9.13010
    93.10903       306.652            9.10130
    92.71155       306.289            9.07250
    92.31540       305.926            9.04440
    91.92058       305.563            9.01560
    91.52709       305.200            8.98740
    91.13492       304.837            8.95930
    90.74407       304.473            8.93110
    90.35452       304.110            8.90290
    89.96629       303.746            8.87470
    89.57935       303.383            8.84650
    89.19372       303.019            8.81820
    88.80938       302.655            8.79070
    88.42632       302.291            8.76310
    88.04456       301.927            8.73550
    87.66407       301.563            8.70790
    87.28486       301.199            8.68030
    86.90692       300.834            8.65260
    86.53026       300.470            8.62490
    86.15485       300.105            8.59800
    85.78058       299.740            8.57020
    85.40754       299.376            8.54320
    85.03578       299.011            8.51620
    84.66529       298.646            8.48910
    84.29607       298.280            8.46200
    83.92810       297.915            8.43490
    83.56139       297.550            8.40780
    83.19593       297.185            8.38140
    82.83172       296.819            8.35420
    82.46874       296.453            8.32780
    82.10699       296.088            8.30130
    81.74648       295.722            8.27480
    81.38719       295.356            8.24830
    81.02911       294.991            8.22170
    80.67226       294.625            8.19520
    80.31660       294.259            8.16930
    79.96216       293.892            8.14270
    79.60890       293.526            8.11680
    79.25684       293.160            8.09090
    78.90598       292.794            8.06500
    78.55628       292.427            8.03900
    78.20776       292.061            8.01310
    77.86041       291.694            7.98710
    77.51422       291.327            7.96180
    77.16920       290.960            7.93570
    76.82532       290.594            7.91040
    76.48260       290.227            7.88430
    76.14104       289.859            7.85890
    75.80061       289.492            7.83350
    75.46133       289.125            7.80810
    75.12319       288.758            7.78260
    74.78619       288.390            7.75790
    74.45033       288.022            7.73240
    74.11559       287.655            7.70760
    73.78198       287.287            7.68210
    73.44949       286.919            7.65730
    73.11813       286.551            7.63240
    72.78788       286.183            7.60750
    72.45875       285.815            7.58270
    72.13072       285.447            7.55770
    71.80380       285.079            7.53280
    71.47799       284.710            7.50860
    71.15327       284.342            7.48360
    70.82967       283.973            7.45930
    70.50715       283.605            7.43500
    70.18572       283.236            7.41070
    69.86538       282.867            7.38640
    69.54613       282.498            7.36200
    69.22796       282.129            7.33760
    68.91087       281.760            7.31320
    68.59486       281.391            7.28950
    68.27991       281.022            7.26510
    67.96604       280.652            7.24140
    67.65324       280.283            7.21680
    67.34150       279.913            7.19310
    67.03082       279.544            7.16930
    66.72121       279.174            7.14540
    66.41264       278.804            7.12160
    66.10513       278.434            7.09850
    65.79867       278.064            7.07460
    65.49326       277.694            7.05060
    65.18889       277.324            7.02750
    64.88556       276.954            7.00430
    64.58327       276.584            6.98020
    64.28201       276.213            6.95700
    63.98178       275.843            6.93370
    63.68259       275.472            6.91040
    63.38443       275.102            6.88780
    63.08728       274.731            6.86450
    62.79116       274.360            6.84110
    62.49606       273.989            6.81840
    62.20197       273.618            6.79500
    61.90889       273.247            6.77230
    61.61678       272.876            6.74960
    61.32556       272.506            6.72680
    61.03537       272.136            6.70400
    60.74617       271.765            6.68120
    60.45800       271.395            6.65830
    60.17083       271.024            6.63540
    59.88466       270.653            6.61330
    59.59949       270.282            6.59040
    59.31532       269.911            6.56820
    59.03215       269.540            6.54530
    58.74996       269.169            6.52310
    58.46876       268.797            6.50080
    58.18855       268.426            6.47860
    57.90932       268.054            6.45630
    57.63107       267.682            6.43400
    57.35380       267.311            6.41160
    57.07750       266.939            6.39000
    56.80217       266.567            6.36770
    56.52782       266.195            6.34600
    56.25442       265.822            6.32440
    55.98199       265.450            6.30190
    55.71052       265.078            6.28020
    55.44001       264.705            6.25850
    55.17045       264.333            6.23680
    54.90184       263.960            6.21500
    54.63419       263.587            6.19400
    54.36747       263.214            6.17220
    54.10171       262.841            6.15030
    53.83688       262.468            6.12930
    53.57300       262.095            6.10740
    53.31005       261.722            6.08620
    53.04803       261.349            6.06510
    52.78695       260.975            6.04390
    52.52679       260.602            6.02270
    52.26757       260.228            6.00150
    52.00926       259.854            5.98030
    51.75188       259.481            5.95900
    51.49366       259.104            5.93750
    51.22704       258.714            5.91510
    50.96175       258.324            5.89180
    50.69779       257.935            5.86940
    50.43514       257.545            5.84700
    50.17379       257.157            5.82380
    49.91373       256.768            5.80140
    49.65493       256.380            5.77980
    49.39740       255.993            5.75740
    49.14112       255.605            5.73500
    48.88608       255.218            5.71350
    48.63226       254.832            5.69110
    48.37966       254.445            5.66950
    48.12826       254.059            5.64800
    47.87805       253.674            5.62640
    47.62902       253.288            5.60480
    47.38118       252.903            5.58330
    47.13448       252.518            5.56260
    46.88894       252.133            5.54100
    46.64454       251.749            5.52030
    46.40127       251.365            5.49870
    46.15912       250.981            5.47790
    45.91808       250.597            5.45720
    45.67815       250.214            5.43640
    45.43932       249.830            5.41570
    45.20156       249.447            5.39490
    44.96488       249.065            5.37500
    44.72927       248.682            5.35420
    44.49472       248.300            5.33420
    44.26122       247.917            5.31340
    44.02876       247.535            5.29350
    43.79733       247.154            5.27350
    43.56693       246.772            5.25350
    43.33754       246.391            5.23350
    43.10917       246.009            5.21350
    42.88179       245.628            5.19350
    42.65542       245.247            5.17430
    42.43003       244.866            5.15420
    42.20562       244.485            5.13510
    41.98217       244.105            5.11500
    41.75970       243.724            5.09570
    41.53819       243.344            5.07650
    41.31762       242.964            5.05720
    41.09800       242.583            5.03800
    40.87931       242.203            5.01870
    40.66155       241.823            4.99940
    40.44472       241.443            4.98090
    40.22881       241.064            4.96160
    40.01380       240.684            4.94220
    39.79970       240.304            4.92370
    39.58650       239.925            4.90520
    39.37420       239.545            4.88670
    39.16277       239.166            4.86720
    38.95223       238.786            4.84860
    38.74256       238.407            4.83000
    38.53377       238.028            4.81140
    38.32583       237.648            4.79370
    38.11876       237.269            4.77500
    37.91254       236.890            4.75630
    37.70716       236.511            4.73850
    37.50263       236.131            4.71980
    37.29894       235.752            4.70190
    37.09608       235.373            4.68410
    36.89405       234.994            4.66620
    36.69284       234.615            4.64740
    36.49245       234.235            4.62940
    36.29287       233.856            4.61140
    36.09411       233.477            4.59440
    35.89616       233.098            4.57630
    35.69900       232.718            4.55830
    35.50265       232.339            4.54020
    35.30709       231.960            4.52310
    35.11232       231.581            4.50500
    34.91833       231.201            4.48770
    34.72514       230.822            4.47050
    34.53271       230.442            4.45230
    34.34107       230.063            4.43500
    34.15020       229.683            4.41770
    33.96011       229.304            4.40030
    33.77077       228.924            4.38300
    33.58220       228.544            4.36560
    33.39439       228.165            4.34910
    33.20734       227.785            4.33160
    33.02105       227.405            4.31410
    32.83550       227.025            4.29760
    32.65070       226.645            4.28000
    32.46666       226.265            4.26340
    32.28335       225.885            4.24580
    32.10078       225.505            4.22920
    31.91895       225.125            4.21250
    31.73787       224.745            4.19570
    31.55751       224.364            4.17900
    31.37788       223.984            4.16220
    31.19898       223.603            4.14540
    31.02081       223.223            4.12860
    30.84336       222.842            4.11170
    30.66664       222.461            4.09580
    30.49063       222.080            4.07890
    30.31533       221.700            4.06290
    30.14076       221.319            4.04590
    29.96690       220.938            4.02990
    29.79375       220.556            4.01280
    29.62130       220.175            3.99670
    29.44957       219.794            3.98060
    29.27853       219.413            3.96450
    29.10820       219.031            3.94830
    28.93857       218.650            3.93210
    28.76964       218.268            3.91590
    28.60140       217.886            3.89960
    28.43386       217.504            3.88330
    28.26701       217.122            3.86800
    28.10085       216.740            3.85170
    27.93539       216.358            3.83630
    27.77061       215.976            3.81990
    27.60651       215.594            3.80440
    27.44309       215.212            3.78800
    27.28036       214.829            3.77250
    27.11831       214.447            3.75700
    26.95693       214.064            3.74140
    26.79623       213.681            3.72590
    26.63620       213.298            3.71030
    26.47700       212.916            3.69460
    26.31831       212.533            3.67900
    26.16030       212.150            3.66330
    26.00294       211.766            3.64760
    25.84626       211.383            3.63280
    25.69024       211.000            3.61710
    25.53488       210.616            3.60230
    25.38018       210.232            3.58650
    25.22614       209.849            3.57160
    25.07275       209.465            3.55570
    24.92002       209.081            3.54080
    24.76794       208.697            3.52590
    24.61652       208.313            3.51100
    24.46574       207.929            3.49600
    24.31561       207.544            3.48100
    24.16613       207.160            3.46590
    24.01729       206.776            3.45090
    23.86909       206.391            3.43580
    23.72154       206.006            3.42070
    23.57462       205.621            3.40660
    23.42834       205.237            3.39140
    23.28270       204.852            3.37620
    23.13769       204.466            3.36200
    22.99332       204.081            3.34680
    22.84957       203.696            3.33250
    22.70646       203.310            3.31820
    22.56397       202.925            3.30290
    22.42211       202.539            3.28860
    22.28087       202.153            3.27420
    22.14026       201.768            3.25980
    22.00027       201.382            3.24540
    21.86089       200.996            3.23100
    21.72214       200.609            3.21650
    21.58400       200.223            3.20210
    21.44647       199.837            3.18860
    21.30956       199.450            3.17410
    21.17326       199.064            3.15950
    21.03756       198.677            3.14590
    20.90248       198.290            3.13130
    20.76800       197.903            3.11770
    20.63413       197.516            3.10410
    20.50086       197.129            3.08940
    20.36819       196.742            3.07570
    20.23612       196.355            3.06200
    20.10465       195.967            3.04830
    19.97378       195.580            3.03350
    19.84350       195.192            3.01970
    19.71381       194.804            3.00590
    19.58472       194.417            2.99320
    19.45622       194.029            2.97930
    19.32830       193.641            2.96540
    19.20098       193.252            2.95150
    19.07424       192.864            2.93870
    18.94808       192.476            2.92470
    18.82250       192.087            2.91070
    18.69751       191.699            2.89780
    18.57309       191.310            2.88380
    18.44925       190.921            2.87080
    18.32599       190.532            2.85780
    18.20330       190.143            2.84370
    18.08119       189.754            2.83060
    17.95964       189.365            2.81750
    17.83867       188.976            2.80440
    17.71826       188.586            2.79130
    17.59842       188.197            2.77810
    17.47915       187.807            2.76500
    17.36043       187.417            2.75170
    17.24228       187.027            2.73850
    17.12469       186.637            2.72640
    17.00766       186.247            2.71310
    16.89119       185.857            2.69980
    16.77527       185.467            2.68750
    16.65990       185.076            2.67420
    16.54509       184.686            2.66190
    16.43083       184.295            2.64850
    16.31712       183.904            2.63610
    16.20395       183.513            2.62270
    16.09133       183.122            2.61030
    15.97926       182.731            2.59790
    15.86773       182.340            2.58550
    15.75674       181.949            2.57300
    15.64629       181.557            2.56050
    15.53638       181.166            2.54800
    15.42701       180.774            2.53550
    15.31817       180.383            2.52300
    15.20986       179.991            2.51040
    15.10209       179.599            2.49780
    14.99485       179.207            2.48630
    14.88814       178.815            2.47360
    14.78195       178.423            2.46100
    14.67630       178.030            2.44940
    14.57117       177.638            2.43670
    14.46655       177.245            2.42510
    14.36247       176.853            2.41230
    14.25890       176.460            2.40060
    14.15585       176.067            2.38890
    14.05332       175.674            2.37610
    13.95130       175.281            2.36430
    13.84980       174.888            2.35260
    13.74881       174.494            2.34080
    13.64833       174.101            2.32900
    13.54836       173.708            2.31720
    13.44890       173.314            2.30530
    13.34995       172.920            2.29350
    13.25150       172.527            2.28160
    13.15356       172.133            2.26960
    13.05611       171.739            2.25890
    12.95917       171.345            2.24690
    12.86273       170.951            2.23490
    12.76678       170.556            2.22410
    12.67134       170.162            2.21200
    12.57638       169.768            2.20110
    12.48192       169.373            2.18900
    12.38795       168.978            2.17810
    12.29447       168.584            2.16710
    12.20149       168.189            2.15490
    12.10898       167.794            2.14390
    12.01697       167.399            2.13290
    11.92544       167.004            2.12190
    11.83439       166.609            2.11080
    11.74382       166.213            2.09850
    11.65374       165.818            2.08730
    11.56413       165.423            2.07740
    11.47499       165.027            2.06620
    11.38634       164.631            2.05500
    11.29816       164.236            2.04380
    11.21045       163.840            2.03260
    11.12321       163.444            2.02130
    11.03645       163.048            2.01120
    10.95015       162.652            1.99990
    10.86432       162.256            1.98980
    10.77895       161.860            1.97840
    10.69405       161.464            1.96830
    10.60961       161.067            1.95680
    10.52564       160.671            1.94660
    10.44212       160.274            1.93520
    10.35906       159.878            1.92490
    10.27646       159.481            1.91460
    10.19431       159.084            1.90440
    10.11262       158.688            1.89270
    10.03138       158.291            1.88240
     9.95059       157.894            1.87200
     9.87026       157.497            1.86170
     9.79037       157.100            1.85120
     9.71092       156.703            1.84080
     9.63193       156.305            1.83030
     9.55338       155.908            1.81980
     9.47527       155.511            1.81060
     9.39760       155.113            1.80010
     9.32037       154.716            1.78950
     9.24358       154.318            1.77890
     9.16723       153.921            1.76960
     9.09131       153.523            1.75900
     9.01583       153.126            1.74960
     8.94078       152.728            1.73890
     8.86617       152.330            1.72950
     8.79198       151.932            1.71880
     8.71822       151.534            1.70930
     8.64489       151.137            1.69980
     8.57199       150.739            1.68900
     8.49951       150.341            1.67950
     8.42745       149.943            1.67000
     8.35582       149.545            1.66040
     8.28461       149.146            1.65080
     8.21381       148.748            1.64120
     8.14344       148.350            1.63020
     8.07348       147.952            1.62050
     8.00393       147.554            1.61220
     7.93480       147.155            1.60250
     7.86608       146.757            1.59280
     7.79778       146.359            1.58300
     7.72988       145.961            1.57320
     7.66239       145.562            1.56340
     7.59531       145.164            1.55490
     7.52863       144.765            1.54510
     7.46236       144.367            1.53520
     7.39649       143.969            1.52660
     7.33102       143.570            1.51670
     7.26596       143.172            1.50810
     7.20129       142.773            1.49810
     7.13702       142.375            1.48950
     7.07314       141.977            1.47940
     7.00962       141.580            1.47080
     6.94533       141.186            1.46180
     6.88143       140.791            1.45120
     6.81800       140.396            1.44220
     6.75503       140.002            1.43320
     6.69253       139.607            1.42260
     6.63048       139.212            1.41350
     6.56889       138.817            1.40440
     6.50775       138.422            1.39530
     6.44705       138.027            1.38620
     6.38678       137.632            1.37710
     6.32696       137.237            1.36790
     6.26756       136.842            1.35880
     6.20860       136.447            1.34960
     6.15005       136.051            1.34040
     6.09193       135.656            1.33120
     6.03423       135.261            1.32350
     5.97693       134.866            1.31430
     5.92005       134.470            1.30500
     5.86357       134.075            1.29570
     5.80750       133.680            1.28800
     5.75182       133.285            1.27860
     5.69655       132.889            1.27080
     5.64166       132.494            1.26150
     5.58717       132.099            1.25370
     5.53306       131.703            1.24420
     5.47934       131.308            1.23640
     5.42601       130.913            1.22850
     5.37305       130.518            1.21900
     5.32047       130.123            1.21110
     5.26826       129.728            1.20320
     5.21643       129.333            1.19520
     5.16497       128.938            1.18720
     5.11387       128.543            1.17920
     5.06314       128.148            1.16960
     5.01277       127.753            1.16160
     4.96276       127.359            1.15350
     4.91311       126.964            1.14540
     4.86381       126.569            1.13890
     4.81487       126.175            1.13080
     4.76628       125.781            1.12260
     4.71804       125.386            1.11450
     4.67015       124.992            1.10620
     4.62260       124.598            1.09800
     4.57540       124.204            1.09140
     4.52854       123.810            1.08310
     4.48202       123.417            1.07480
     4.43584       123.023            1.06820
     4.39000       122.630            1.05980
     4.34449       122.236            1.05310
     4.29931       121.843            1.04470
     4.25447       121.450            1.03790
     4.20996       121.057            1.02950
     4.16577       120.665            1.02270
     4.12191       120.272            1.01420
     4.07838       119.880            1.00730
     4.03517       119.487            1.00050
     3.99228       119.095            0.99186
     3.94971       118.704            0.98496
     3.90747       118.312            0.97803
     3.86554       117.921            0.97107
     3.82392       117.529            0.96410
     3.78262       117.138            0.95535
     3.74163       116.747            0.94832
     3.70095       116.357            0.94127
     3.66059       115.966            0.93419
     3.62053       115.576            0.92709
     3.58078       115.186            0.91996
     3.54134       114.796            0.91281
     3.50220       114.407            0.90563
     3.46336       114.018            0.89842
     3.42483       113.629            0.89300
     3.38659       113.240            0.88574
     3.34866       112.852            0.87846
     3.31102       112.463            0.87115
     3.27368       112.075            0.86381
     3.23664       111.688            0.85829
     3.19989       111.300            0.85090
     3.16343       110.913            0.84348
     3.12726       110.527            0.83789
     3.09139       110.140            0.83041
     3.05580       109.754            0.82478
     3.02050       109.368            0.81725
     2.98548       108.982            0.81158
     2.95075       108.597            0.80399
     2.91631       108.212            0.79827
     2.88215       107.828            0.79062
     2.84826       107.443            0.78486
     2.81466       107.060            0.77908
     2.78134       106.676            0.77133
     2.74829       106.293            0.76550
     2.71552       105.910            0.75965
     2.68303       105.528            0.75182
     2.65081       105.145            0.74591
     2.61886       104.764            0.73999
     2.58718       104.382            0.73404
     2.55578       104.001            0.72807
     2.52464       103.621            0.72208
     2.49377       103.241            0.71405
     2.46317       102.861            0.70800
     2.43283       102.482            0.70192
     2.40275       102.103            0.69582
     2.37294       101.724            0.68970
     2.34339       101.346            0.68355
     2.31410       100.968            0.67943
     2.28674       100.554            0.67392
     2.25792       100.102            0.66821
     2.22933        99.653            0.66246
     2.20099        99.211            0.65663
     2.17288        98.772            0.65075
     2.14501        98.337            0.64482
     2.11738        97.906            0.64083
     2.08998        97.478            0.63480
     2.06282        97.054            0.62871
     2.03591        96.634            0.62461
     2.00922        96.217            0.61843
     1.98278        95.804            0.61219
     1.95657        95.391            0.60800
     1.93059        94.982            0.60167
     1.90486        94.577            0.59528
     1.87936        94.176            0.59099
     1.85410        93.779            0.58449
     1.82907        93.385            0.58012
     1.80428        92.995            0.57351
     1.77972        92.608            0.56907
     1.75540        92.197            0.56257
     1.73129        91.772            0.55828
     1.70741        91.352            0.55396
     1.68375        90.935            0.54741
     1.66032        90.522            0.54300
     1.63711        90.113            0.53855
     1.61412        89.708            0.53182
     1.59135        89.307            0.52729
     1.56880        88.892            0.52281
     1.54647        88.464            0.51839
     1.52435        88.040            0.51168
     1.50244        87.620            0.50716
     1.48074        87.204            0.50260
     1.45927        86.792            0.49800
     1.43800        86.385            0.49336
     1.41695        85.981            0.48868
     1.39610        85.559            0.48404
     1.37546        85.132            0.47713
     1.35503        84.708            0.47247
     1.33480        84.289            0.46777
     1.31477        83.874            0.46301
     1.29495        83.464            0.45821
     1.27535        83.127            0.45286
     1.25597        82.815            0.45017
     1.23681        82.445            0.44500
     1.21785        82.055            0.44002
     1.19909        81.670            0.43498
     1.18053        81.288            0.42990
     1.16219        80.911            0.42477
     1.14405        80.538            0.41958
     1.12610        80.169            0.41697
     1.10834        79.686            0.41220
     1.09074        79.154            0.40787
     1.07332        78.626            0.40348
     1.05606        78.104            0.40125
     1.03878        77.581            0.39675
     1.01787        76.948            0.39148
     0.99519        76.262            0.38110
     0.97375        75.627            0.37436
     0.95325        75.024            0.36775
     0.93359        74.446            0.36126
     0.91466        73.889            0.35486
     0.89638        73.351            0.35170
     0.87864        72.822            0.34543
     0.86144        72.307            0.33924
     0.84477        71.807            0.33311
     0.82853        71.321            0.33005
     0.81273        70.847            0.32397
     0.79732        70.385            0.32094
     0.78222        69.923            0.31491
     0.76747        69.463            0.31192
     0.75304        69.014            0.30594
     0.73892        68.574            0.30294
     0.72511        68.144            0.29694
     0.71155        67.722            0.29393
     0.69830        67.312            0.29091
     0.68530        66.923            0.28475
     0.67254        66.542            0.28166
     0.66000        66.167            0.27855
     0.64769        65.800            0.27542
     0.63559        65.438            0.27228
     0.62369        65.077            0.26598
     0.61197        64.719            0.26281
     0.60045        64.366            0.25963
     0.58914        64.020            0.25642
     0.57801        63.679            0.25319
     0.56705        63.343            0.24994
     0.55627        63.012            0.24667
     0.54566        62.682            0.24339
     0.53522        62.358            0.23676
     0.52495        62.038            0.23340
     0.51484        61.724            0.23001
     0.50489        61.415            0.22660
     0.49510        61.113            0.22314
     0.48547        60.817            0.21966
     0.47599        60.526            0.21966
     0.46667        60.240            0.21614
     0.45749        59.958            0.21259
     0.44846        59.680            0.20901
     0.43957        59.411            0.20540
     0.43085        59.180            0.20161
     0.42228        58.952            0.19780
     0.41386        58.729            0.19395
     0.40557        58.509            0.19395
     0.39742        58.292            0.19007
     0.38941        58.081            0.18615
     0.38154        57.883            0.18216
     0.37382        57.689            0.17813
     0.36623        57.498            0.17813
     0.35876        57.311            0.17407
     0.35143        57.126            0.16998
     0.34425        56.962            0.16577
     0.33719        56.802            0.16577
     0.33023        56.645            0.16154
     0.32345        56.492            0.15727
     0.31678        56.342            0.15727
     0.31019        56.195            0.15297
     0.30380        56.084            0.14850
     0.29749        55.974            0.14850
     0.29129        55.866            0.14400
     0.28526        55.761            0.13947
     0.27929        55.658            0.13947
     0.27348        55.563            0.13489
     0.26777        55.470            0.13489
     0.26216        55.378            0.13029
     0.25669        55.289            0.13029
     0.25127        55.200            0.12566
     0.24603        55.106            0.12566
     0.24082        55.012            0.12104
     0.23580        54.921            0.12104
     0.23078        54.830            0.11639
     0.22596        54.742            0.11639
     0.22115        54.655            0.11170
     0.21652        54.576            0.11170
     0.21191        54.499            0.10697
     0.20745        54.423            0.10697
     0.20305        54.349            0.10220
     0.19874        54.277            0.10220
     0.19454        54.206            0.09740
     0.19036        54.135            0.09740
     0.18637        54.064            0.09740
     0.18238        53.992            0.09260
     0.17851        53.923            0.09260
     0.17473        53.855            0.08776
     0.17095        53.787            0.08776
     0.16736        53.728            0.08776
     0.16379        53.669            0.08286
     0.16024        53.611            0.08286
     0.15689        53.555            0.08286
     0.15353        53.500            0.07794
     0.15020        53.448            0.07794
     0.14707        53.429            0.07794
     0.14393        53.409            0.07285
     0.14080        53.390            0.07285
     0.13785        53.346            0.07285
     0.13493        53.299            0.06787
     0.13201        53.253            0.06787
     0.12920        53.208            0.06787
     0.12649        53.165            0.06787
     0.12379        53.121            0.06285
     0.12108        53.078            0.06285
     0.11855        53.058            0.06285
     0.11607        53.043            0.06285
     0.11359        53.029            0.05770
     0.11111        53.015            0.05770
     0.10880        53.022            0.05770
     0.10655        53.037            0.05770
     0.10429        53.052            0.05242
     0.10204        53.067            0.05242
     0.09986        53.081            0.05242
     0.09783        53.095            0.05242
     0.09580        53.108            0.05242
     0.09378        53.122            0.04715
     0.09175        53.135            0.04715
     0.08981        53.154            0.04715
     0.08801        53.181            0.04715
     0.08622        53.208            0.04715
     0.08442        53.235            0.04183
     0.08262        53.262            0.04183
     0.08082        53.289            0.04183
     0.07921        53.308            0.04183
     0.07764        53.325            0.04183
     0.07607        53.342            0.04183
     0.07450        53.359            0.03657
     0.07293        53.377            0.03657
     0.07136        53.394            0.03657
     0.06989        53.410            0.03657
     0.06855        53.424            0.03657
     0.06720        53.438            0.03657
     0.06586        53.452            0.03657
     0.06452        53.467            0.03133
     0.06317        53.481            0.03133
     0.06183        53.495            0.03133
     0.06049        53.510            0.03133
     0.05938        53.556            0.03133
     0.05827        53.603            0.03133
     0.05715        53.650            0.03133
     0.05604        53.696            0.03133
     0.05493        53.743            0.02596
     0.05382        53.790            0.02596
     0.05271        53.836            0.02596
     0.05160        53.883            0.02596
     0.05049        53.930            0.02596
     0.04962        53.995            0.02596
     0.04874        54.061            0.02596
     0.04787        54.126            0.02596
     0.04699        54.192            0.02596
     0.04612        54.257            0.02596
     0.04524        54.323            0.02057
     0.04437        54.388            0.02057
     0.04349        54.454            0.02057
     0.04262        54.520            0.02057
     0.04174        54.585            0.02057
     0.04087        54.651            0.02057
     0.04014        54.711            0.02057
     0.03952        54.767            0.02057
     0.03889        54.824            0.02057
     0.03827        54.880            0.02057
     0.03765        54.936            0.02057
     0.03703        54.993            0.02057
     0.03641        55.049            0.02057
     0.03579        55.106            0.02057
     0.03516        55.162            0.01529
     0.03454        55.218            0.01529
     0.03392        55.275            0.01529
     0.03330        55.331            0.01529
     0.03268        55.387            0.01529
     0.03205        55.444            0.01529
     0.03143        55.500            0.01529
     0.03081        55.556            0.01529
     0.03030        55.652            0.01529
     0.02991        55.788            0.01529
     0.02951        55.924            0.01529
     0.02912        56.060            0.01529
     0.02872        56.195            0.01529
     0.02833        56.331            0.01529
     0.02793        56.467            0.01529
     0.02754        56.602            0.01529
     0.02714        56.738            0.01529
     0.02675        56.874            0.01529
     0.02635        57.009            0.01529
     0.02596        57.145            0.01529
     0.02556        57.281            0.01529
     0.02517        57.416            0.00994
     0.02477        57.552            0.00994
     0.02438        57.688            0.00994
     0.02398        57.824            0.00994
     0.02359        57.959            0.00994
     0.02319        58.095            0.00994
     0.02280        58.231            0.00994
     0.02240        58.366            0.00994
     0.02201        58.502            0.00994
     0.02161        58.638            0.00994
     0.02122        58.773            0.00994
     0.02082        58.909            0.00994
     0.02046        59.054            0.00994
     0.02027        59.242            0.00994
     0.02007        59.429            0.00994
     0.01988        59.616            0.00994
     0.01969        59.803            0.00994
     0.01949        59.990            0.00994
     0.01930        60.178            0.00994
     0.01910        60.365            0.00994
     0.01891        60.552            0.00994
     0.01871        60.739            0.00994
     0.01852        60.926            0.00994
     0.01832        61.114            0.00994
     0.01813        61.301            0.00994
     0.01794        61.488            0.00994
     0.01774        61.675            0.00994
     0.01755        61.862            0.00994
     0.01735        62.050            0.00994
     0.01716        62.237            0.00994
     0.01696        62.424            0.00994
     0.01677        62.611            0.00994
     0.01657        62.798            0.00994
     0.01638        62.986            0.00994
     0.01619        63.173            0.00994
     0.01599        63.360            0.00994
     0.01580        63.547            0.00994
     0.01560        63.734            0.00994
     0.01541        63.922            0.00453
     0.01521        64.109            0.00453
     0.01502        64.296            0.00453
     0.01482        64.483            0.00453
     0.01463        64.671            0.00453
     0.01443        64.858            0.00453
     0.01424        65.045            0.00453
     0.01405        65.232            0.00453
     0.01385        65.419            0.00453
     0.01366        65.607            0.00453
     0.01346        65.794            0.00453
     0.01327        65.981            0.00453
     0.01307        66.168            0.00453
     0.01288        66.355            0.00453
     0.01268        66.543            0.00453
     0.01249        66.730            0.00453
     0.01230        66.917            0.00453
     0.01210        67.104            0.00453
     0.01191        67.291            0.00453
     0.01171        67.479            0.00453
     0.01152        67.666            0.00453
