      P(bar)          T(K)        Rho(k_gm-3)
  5000.00781       740.451          340.89999
  4981.49121       739.732          339.97000
  4963.02490       739.013          339.03000
  4944.60938       738.294          338.10999
  4926.24463       737.575          337.17999
  4907.92969       736.856          336.25000
  4889.66504       736.136          335.32999
  4871.45117       735.417          334.41000
  4853.28711       734.698          333.48999
  4835.17334       733.978          332.57001
  4817.10889       733.258          331.64999
  4799.09473       732.538          330.73001
  4781.13037       731.818          329.82001
  4763.21582       731.098          328.91000
  4745.35059       730.378          328.00000
  4727.53467       729.658          327.09000
  4709.76855       728.938          326.17999
  4692.05127       728.217          325.28000
  4674.38330       727.497          324.37000
  4656.76465       726.776          323.47000
  4639.19482       726.055          322.57001
  4621.67383       725.335          321.67001
  4604.20215       724.614          320.76999
  4586.77881       723.893          319.88000
  4569.40430       723.172          318.98001
  4552.07861       722.450          318.09000
  4534.80078       721.729          317.20001
  4517.57227       721.008          316.31000
  4500.39160       720.286          315.42999
  4483.25879       719.565          314.54001
  4466.17432       718.843          313.66000
  4449.13818       718.121          312.76999
  4432.14990       717.399          311.89001
  4415.20947       716.677          311.01001
  4398.31641       715.955          310.13000
  4381.47119       715.233          309.26001
  4364.67383       714.511          308.39001
  4347.92383       713.789          307.51001
  4331.22168       713.066          306.64001
  4314.56592       712.344          305.76999
  4297.95801       711.621          304.91000
  4281.39746       710.898          304.04001
  4264.88330       710.175          303.17999
  4248.41699       709.453          302.31000
  4231.99658       708.730          301.45001
  4215.62354       708.006          300.59000
  4199.29736       707.283          299.73001
  4183.01758       706.560          298.88000
  4166.78418       705.837          298.01999
  4150.59766       705.113          297.17001
  4134.45752       704.390          296.32001
  4118.36328       703.666          295.47000
  4102.31543       702.942          294.62000
  4086.31323       702.218          293.76999
  4070.35742       701.495          292.92999
  4054.44727       700.771          292.07999
  4038.58325       700.046          291.23999
  4022.76514       699.322          290.39999
  4006.99243       698.598          289.56000
  3991.26538       697.874          288.73001
  3975.58374       697.149          287.89001
  3959.94751       696.424          287.04999
  3944.35645       695.700          286.23001
  3928.81079       694.975          285.39001
  3913.31030       694.250          284.56000
  3897.85474       693.525          283.73999
  3882.44458       692.800          282.91000
  3867.07861       692.075          282.09000
  3851.75806       691.350          281.26999
  3836.48193       690.625          280.44000
  3821.25024       689.899          279.62000
  3806.06348       689.174          278.81000
  3790.92090       688.448          277.98999
  3775.82300       687.723          277.17001
  3760.76904       686.997          276.35999
  3745.75928       686.271          275.54999
  3730.79395       685.545          274.73999
  3715.87256       684.819          273.92999
  3700.99487       684.093          273.12000
  3686.16138       683.367          272.32001
  3671.37158       682.641          271.51001
  3656.62524       681.914          270.70999
  3641.92285       681.188          269.91000
  3627.26367       680.461          269.10999
  3612.64795       679.735          268.31000
  3598.07593       679.008          267.51999
  3583.54688       678.281          266.72000
  3569.06104       677.554          265.92999
  3554.61816       676.827          265.13000
  3540.21851       676.100          264.34000
  3525.86182       675.373          263.56000
  3511.54785       674.646          262.76999
  3497.27686       673.918          261.98999
  3483.04834       673.191          261.20001
  3468.86230       672.464          260.42001
  3454.71899       671.736          259.64001
  3440.61816       671.008          258.85999
  3426.55957       670.281          258.07999
  3412.54346       669.553          257.29999
  3398.56885       668.825          256.53000
  3384.63721       668.097          255.75000
  3370.74731       667.369          254.98000
  3356.89893       666.640          254.21001
  3343.09277       665.912          253.45000
  3329.32837       665.184          252.67999
  3315.60547       664.455          251.91000
  3301.92407       663.727          251.14999
  3288.28442       662.998          250.39000
  3274.68628       662.269          249.63000
  3261.12964       661.541          248.86000
  3247.61401       660.812          248.11000
  3234.13940       660.083          247.35001
  3220.70630       659.354          246.59000
  3207.31396       658.625          245.84000
  3193.96265       657.895          245.09000
  3180.65210       657.166          244.34000
  3167.38232       656.437          243.59000
  3154.15356       655.707          242.85001
  3140.96509       654.978          242.10001
  3127.81738       654.248          241.35001
  3114.70996       653.518          240.61000
  3101.64282       652.789          239.87000
  3088.61621       652.059          239.13000
  3075.62964       651.329          238.39000
  3062.68359       650.599          237.64999
  3049.77686       649.869          236.92000
  3036.91064       649.138          236.17999
  3024.08423       648.408          235.45000
  3011.29761       647.678          234.72000
  2998.31421       646.943          220.70000
  2982.66748       646.174          219.67000
  2967.09863       645.406          218.64000
  2951.60742       644.640          217.62000
  2936.19287       643.875          216.60001
  2920.85571       643.111          215.59000
  2905.59497       642.349          214.57001
  2890.41064       641.589          213.57001
  2875.30176       640.829          212.56000
  2860.26880       640.072          211.57001
  2845.31128       639.315          210.57001
  2830.42847       638.560          209.58000
  2815.62036       637.806          208.60001
  2800.88647       637.054          207.62000
  2786.22681       636.303          206.64000
  2771.64063       635.554          205.67000
  2757.12793       634.806          204.70000
  2742.68799       634.059          203.74001
  2728.32104       633.314          202.78000
  2714.02661       632.570          201.82001
  2699.80420       631.827          200.87000
  2685.65308       631.086          199.92999
  2671.57397       630.346          198.98000
  2657.56567       629.608          198.03999
  2643.62842       628.870          197.10001
  2629.76172       628.135          196.17999
  2615.96484       627.400          195.25000
  2602.23828       626.667          194.32001
  2588.58105       625.935          193.41000
  2574.99292       625.205          192.49001
  2561.47388       624.476          191.58000
  2548.02344       623.748          190.67000
  2534.64136       623.022          189.77000
  2521.32715       622.297          188.87000
  2508.08057       621.573          187.98000
  2494.90137       620.851          187.09000
  2481.78931       620.129          186.20000
  2468.74390       619.410          185.32001
  2455.76514       618.691          184.44000
  2442.85229       617.974          183.57001
  2430.00537       617.258          182.70000
  2417.22388       616.543          181.83000
  2404.50757       615.830          180.97000
  2391.85620       615.118          180.11000
  2379.26953       614.407          179.25000
  2366.74707       613.698          178.39999
  2354.28857       612.989          177.55000
  2341.89380       612.282          176.71001
  2329.56250       611.577          175.87000
  2317.29419       610.872          175.03000
  2305.08838       610.169          174.20000
  2292.94556       609.467          173.37000
  2280.86475       608.766          172.55000
  2268.84570       608.067          171.72000
  2256.88843       607.369          170.91000
  2244.99243       606.672          170.09000
  2233.15723       605.976          169.28999
  2221.38281       605.281          168.48000
  2209.66895       604.588          167.67000
  2198.01514       603.896          166.87000
  2186.42114       603.205          166.08000
  2174.88672       602.515          165.28999
  2163.41162       601.827          164.50000
  2151.99536       601.139          163.71001
  2140.63794       600.453          162.92999
  2129.33887       599.768          162.14999
  2118.09766       599.085          161.38000
  2106.91479       598.402          160.61000
  2095.78906       597.721          159.84000
  2084.72070       597.041          159.08000
  2073.70947       596.362          158.32001
  2062.75464       595.684          157.57001
  2051.85669       595.007          156.81000
  2041.01453       594.332          156.06000
  2030.22827       593.657          155.31000
  2019.49780       592.984          154.57001
  2008.82251       592.312          153.83000
  1998.20239       591.641          153.09000
  1987.63696       590.971          152.36000
  1977.12610       590.302          151.63000
  1966.66943       589.635          150.91000
  1956.26672       588.968          150.19000
  1945.91760       588.303          149.46001
  1935.62207       587.639          148.75000
  1925.37964       586.976          148.03999
  1915.19019       586.314          147.33000
  1905.05347       585.653          146.62000
  1894.96899       584.993          145.92000
  1884.93665       584.334          145.22000
  1874.95618       583.677          144.53000
  1865.02722       583.020          143.83000
  1855.14966       582.365          143.14000
  1845.32324       581.710          142.45000
  1835.54749       581.057          141.77000
  1825.82251       580.405          141.09000
  1816.14771       579.753          140.41000
  1806.52307       579.103          139.74001
  1796.94812       578.454          139.06000
  1787.42285       577.806          138.39999
  1777.94690       577.159          137.73000
  1768.51990       576.513          137.07001
  1759.14172       575.868          136.41000
  1749.81213       575.224          135.75999
  1740.53101       574.582          135.11000
  1731.29797       573.940          134.46001
  1722.11267       573.299          133.81000
  1712.97485       572.659          133.17000
  1703.88452       572.020          132.53000
  1694.84131       571.383          131.89000
  1685.84497       570.746          131.25000
  1676.89514       570.110          130.63000
  1667.99182       569.475          130.00000
  1659.13477       568.842          129.37000
  1650.32349       568.209          128.75000
  1641.55786       567.577          128.13000
  1632.83789       566.946          127.51000
  1624.16321       566.316          126.90000
  1615.53333       565.687          126.28000
  1606.94836       565.059          125.68000
  1598.40784       564.432          125.07000
  1589.91162       563.806          124.47000
  1581.45972       563.181          123.87000
  1573.05139       562.557          123.28000
  1564.68689       561.934          122.68000
  1556.36572       561.312          122.09000
  1548.08789       560.691          121.50000
  1539.85291       560.070          120.92000
  1531.66077       559.451          120.34000
  1523.51123       558.832          119.75000
  1515.40381       558.215          119.17000
  1507.33875       557.598          118.60000
  1499.31555       556.982          118.03000
  1491.33386       556.367          117.46000
  1483.39380       555.753          116.89000
  1475.49487       555.140          116.33000
  1467.63708       554.528          115.76000
  1459.82019       553.917          115.21000
  1452.04370       553.307          114.65000
  1444.30786       552.697          114.10000
  1436.61206       552.089          113.55000
  1428.95630       551.481          113.00000
  1421.34045       550.874          112.45000
  1413.76416       550.268          111.91000
  1406.22754       549.663          111.37000
  1398.73059       549.059          110.83000
  1391.27246       548.456          110.30000
  1383.85315       547.853          109.77000
  1376.47253       547.252          109.23000
  1369.13025       546.651          108.70000
  1361.82605       546.051          108.18000
  1354.56006       545.452          107.66000
  1347.33167       544.854          107.13000
  1340.14087       544.257          106.62000
  1332.98755       543.660          106.10000
  1325.87146       543.065          105.59000
  1318.79248       542.470          105.08000
  1311.75024       541.876          104.57000
  1304.74463       541.282          104.06000
  1297.77551       540.690          103.56000
  1290.84277       540.098          103.06000
  1283.94592       539.508          102.56000
  1277.08508       538.918          102.07000
  1270.25989       538.328          101.57000
  1263.47034       537.740          101.08000
  1256.71606       537.152          100.59000
  1249.99695       536.565          100.10000
  1243.31274       535.979           99.61900
  1236.66357       535.394           99.14000
  1230.04883       534.809           98.65400
  1223.46851       534.225           98.18200
  1216.92261       533.642           97.70200
  1210.41077       533.060           97.23000
  1203.93274       532.479           96.75700
  1197.48853       531.898           96.29200
  1191.07788       531.318           95.82600
  1184.70068       530.738           95.36000
  1178.35669       530.160           94.90100
  1172.04565       529.582           94.43500
  1165.76758       529.005           93.98300
  1159.52222       528.429           93.52400
  1153.30933       527.853           93.07100
  1147.12878       527.278           92.61900
  1140.98059       526.704           92.17300
  1134.86438       526.130           91.72700
  1128.78003       525.558           91.28200
  1122.72742       524.986           90.83500
  1116.70630       524.414           90.39600
  1110.71667       523.844           89.95700
  1104.75818       523.274           89.52500
  1098.83069       522.704           89.08600
  1092.93420       522.136           88.65300
  1087.06848       521.568           88.22800
  1081.23340       521.001           87.79500
  1075.42859       520.434           87.37000
  1069.65417       519.868           86.95100
  1063.90979       519.303           86.52500
  1058.19531       518.739           86.10600
  1052.51074       518.175           85.68700
  1046.85583       517.611           85.27500
  1041.23035       517.049           84.85600
  1035.63428       516.487           84.44400
  1030.06738       515.926           84.03900
  1024.52954       515.365           83.62600
  1019.02057       514.805           83.22100
  1013.54034       514.246           82.81500
  1008.08875       513.687           82.41700
  1002.66553       513.129           82.01800
   997.27063       512.572           81.61400
   991.90393       512.015           81.21700
   986.56519       511.459           80.82300
   981.25433       510.903           80.43000
   975.97119       510.348           80.03900
   970.71570       509.794           79.65100
   965.48755       509.240           79.26400
   960.28674       508.687           78.87900
   955.11304       508.135           78.49500
   949.96637       507.583           78.11400
   944.84662       507.031           77.73400
   939.75360       506.481           77.35600
   934.68713       505.931           76.98000
   929.64709       505.381           76.60600
   924.63354       504.832           76.23300
   919.64600       504.284           75.86300
   914.68457       503.736           75.49400
   909.74902       503.189           75.12700
   904.83936       502.642           74.76200
   899.95526       502.096           74.39900
   895.09674       501.550           74.03700
   890.26355       501.005           73.67600
   885.45563       500.461           73.31900
   880.67285       499.917           72.96200
   875.91504       499.373           72.60700
   871.18207       498.831           72.25400
   866.47394       498.288           71.90200
   861.79034       497.747           71.55300
   857.13129       497.205           71.20500
   852.49646       496.665           70.85900
   847.88599       496.124           70.51400
   843.29962       495.585           70.17100
   838.73718       495.046           69.82900
   834.19855       494.507           69.49000
   829.68378       493.969           69.15100
   825.19257       493.432           68.81500
   820.72479       492.894           68.48000
   816.28046       492.358           68.14700
   811.85938       491.822           67.81500
   807.46136       491.286           67.48500
   803.08643       490.751           67.15700
   798.73425       490.217           66.83000
   794.40497       489.683           66.50500
   790.09833       489.149           66.18100
   785.81415       488.616           65.85900
   781.55249       488.083           65.53800
   777.31305       487.551           65.21900
   773.09583       487.019           64.90300
   768.90070       486.488           64.58600
   764.72754       485.957           64.27200
   760.57617       485.427           63.95900
   756.44666       484.897           63.64800
   752.33862       484.368           63.33800
   748.25214       483.839           63.02900
   744.18713       483.310           62.72300
   740.14337       482.782           62.41700
   736.12073       482.254           62.11400
   732.11920       481.727           61.81100
   728.13861       481.201           61.51100
   724.17896       480.674           61.21100
   720.23999       480.148           60.91300
   716.32166       479.623           60.61600
   712.42395       479.098           60.32100
   708.54651       478.573           60.02800
   704.68945       478.049           59.73500
   700.85266       477.525           59.44400
   697.03595       477.002           59.15600
   693.23920       476.479           58.86700
   689.46240       475.956           58.58000
   685.70538       475.434           58.29600
   681.96808       474.912           58.01200
   678.25043       474.391           57.72900
   674.55219       473.870           57.44800
   670.87335       473.349           57.16800
   667.21387       472.829           56.89000
   663.57349       472.309           56.61300
   659.95227       471.790           56.33700
   656.35004       471.270           56.06300
   652.76666       470.752           55.79100
   649.20215       470.233           55.51900
   645.65631       469.715           55.24900
   642.12915       469.198           54.98000
   638.62042       468.680           54.71200
   635.13013       468.163           54.44600
   631.65814       467.647           54.18100
   628.20441       467.131           53.91700
   624.76874       466.615           53.65500
   621.35120       466.099           53.39300
   617.95154       465.584           53.13300
   614.56982       465.069           52.87500
   611.20575       464.554           52.61800
   607.85944       464.040           52.36100
   604.53070       463.526           52.10700
   601.21936       463.013           51.85300
   597.92548       462.499           51.60100
   594.64893       461.986           51.35000
   591.38959       461.474           51.10000
   588.14734       460.962           50.85100
   584.92212       460.449           50.60300
   581.71387       459.938           50.35700
   578.52246       459.426           50.11200
   575.34790       458.915           49.86900
   572.18994       458.404           49.62600
   569.04871       457.894           49.38500
   565.92389       457.384           49.14400
   562.81549       456.874           48.90600
   559.72345       456.364           48.66700
   556.64771       455.855           48.43100
   553.58813       455.345           48.19500
   550.54468       454.837           47.96000
   547.51721       454.328           47.72800
   544.50568       453.820           47.49600
   541.51001       453.311           47.26400
   538.53003       452.804           47.03500
   535.56580       452.296           46.80600
   532.61719       451.789           46.57900
   529.68402       451.282           46.35200
   526.76636       450.775           46.12700
   523.86401       450.268           45.90200
   520.97699       449.762           45.68000
   518.10516       449.256           45.45800
   515.24841       448.750           45.23700
   512.40674       448.244           45.01700
   509.58008       447.739           44.79800
   506.76825       447.234           44.58000
   503.97125       446.729           44.36400
   501.18900       446.224           44.14800
   498.42139       445.719           43.93400
   495.66837       445.215           43.72000
   492.92984       444.711           43.50800
   490.20575       444.207           43.29700
   487.49603       443.703           43.08700
   484.80060       443.200           42.87700
   482.11935       442.696           42.66900
   479.45224       442.193           42.46200
   476.79919       441.690           42.25600
   474.16016       441.188           42.05100
   471.53503       440.685           41.84700
   468.92377       440.182           41.64300
   466.32623       439.680           41.44200
   463.74243       439.178           41.24000
   461.17224       438.676           41.04000
   458.61563       438.174           40.84200
   456.07248       437.673           40.64300
   453.54276       437.172           40.44600
   451.02640       436.670           40.25000
   448.52332       436.169           40.05500
   446.03345       435.668           39.86000
   443.55673       435.167           39.66800
   441.09305       434.667           39.47500
   438.64240       434.166           39.28400
   436.20468       433.666           39.09300
   433.77985       433.165           38.90400
   431.36780       432.665           38.71600
   428.96851       432.165           38.52800
   426.58188       431.665           38.34100
   424.20786       431.166           38.15600
   421.84637       430.666           37.97100
   419.49734       430.166           37.78700
   417.16077       429.667           37.60400
   414.83652       429.168           37.42200
   412.52451       428.668           37.24100
   410.22476       428.169           37.06100
   407.93716       427.670           36.88200
   405.66165       427.171           36.70300
   403.39816       426.672           36.52600
   401.14664       426.174           36.34900
   398.90704       425.675           36.17300
   396.67923       425.176           35.99800
   394.46323       424.678           35.82400
   392.25897       424.179           35.65100
   390.06631       423.681           35.47900
   387.88528       423.183           35.30800
   385.71576       422.685           35.13700
   383.55777       422.186           34.96700
   381.41113       421.688           34.79800
   379.27588       421.190           34.63100
   377.15192       420.692           34.46300
   375.03915       420.194           34.29700
   372.93759       419.696           34.13100
   370.84720       419.198           33.96700
   368.76779       418.701           33.80300
   366.69943       418.203           33.64000
   364.64200       417.705           33.47700
   362.59549       417.207           33.31600
   360.55975       416.709           33.15500
   358.53485       416.212           32.99500
   356.52060       415.714           32.83600
   354.51703       415.216           32.67900
   352.52411       414.719           32.52100
   350.54169       414.221           32.36400
   348.56979       413.723           32.20800
   346.60831       413.226           32.05300
   344.65723       412.728           31.89900
   342.71649       412.231           31.74600
   340.78601       411.733           31.59300
   338.86575       411.235           31.44100
   336.95569       410.738           31.29000
   335.05569       410.240           31.13900
   333.16580       409.742           30.99000
   331.28589       409.245           30.84100
   329.41595       408.747           30.69200
   327.55591       408.249           30.54500
   325.70572       407.751           30.39800
   323.86533       407.253           30.25200
   322.03467       406.755           30.10600
   320.21371       406.258           29.96200
   318.40240       405.760           29.81800
   316.60071       405.262           29.67500
   314.80856       404.763           29.53300
   313.02588       404.265           29.39100
   311.25266       403.767           29.25000
   309.48883       403.269           29.11000
   307.73434       402.771           28.97000
   305.98914       402.272           28.83100
   304.25320       401.774           28.69300
   302.52643       401.275           28.55600
   300.80884       400.777           28.41900
   299.10031       400.278           28.28300
   297.40088       399.779           28.14700
   295.71042       399.280           28.01300
   294.02893       398.781           27.87900
   292.35635       398.282           27.74600
   290.69260       397.783           27.61200
   289.03769       397.284           27.48100
   287.39154       396.785           27.34900
   285.75412       396.285           27.21800
   284.12537       395.786           27.08900
   282.50522       395.286           26.95900
   280.89368       394.786           26.83000
   279.29068       394.286           26.70200
   277.69617       393.786           26.57500
   276.11008       393.286           26.44800
   274.53241       392.786           26.32100
   272.96310       392.286           26.19600
   271.40207       391.785           26.07100
   269.84933       391.285           25.94700
   268.30484       390.784           25.82300
   266.76849       390.283           25.70000
   265.24026       389.782           25.57700
   263.72018       389.281           25.45600
   262.20813       388.779           25.33500
   260.70407       388.278           25.21300
   259.20795       387.776           25.09400
   257.71979       387.274           24.97400
   256.23947       386.772           24.85500
   254.76701       386.270           24.73700
   253.30234       385.768           24.61900
   251.84541       385.265           24.50300
   250.39622       384.763           24.38600
   248.95468       384.260           24.27000
   247.52077       383.757           24.15500
   246.09442       383.253           24.04000
   244.67564       382.750           23.92600
   243.26436       382.246           23.81200
   241.86053       381.743           23.69900
   240.46414       381.239           23.58700
   239.07513       380.735           23.47500
   237.69347       380.230           23.36300
   236.31911       379.726           23.25300
   234.95200       379.221           23.14200
   233.59212       378.716           23.03300
   232.23944       378.211           22.92400
   230.89391       377.705           22.81500
   229.55547       377.200           22.70700
   228.22411       376.694           22.59900
   226.89978       376.188           22.49300
   225.58244       375.682           22.38600
   224.27206       375.175           22.28000
   222.96860       374.668           22.17500
   221.67203       374.161           22.07000
   220.38228       373.654           21.96500
   219.09933       373.147           21.86200
   217.82318       372.639           21.75800
   216.55376       372.131           21.65500
   215.29102       371.623           21.55300
   214.03494       371.115           21.45100
   212.78548       370.606           21.35100
   211.54262       370.097           21.24900
   210.30630       369.588           21.14900
   209.07651       369.079           21.05000
   207.85316       368.569           20.95000
   206.63628       368.059           20.85100
   205.42583       367.549           20.75300
   204.22173       367.039           20.65500
   203.02396       366.528           20.55700
   201.83250       366.017           20.46000
   200.64729       365.506           20.36400
   199.46835       364.994           20.26800
   198.29559       364.482           20.17300
   197.12901       363.970           20.07800
   195.96857       363.458           19.98300
   194.81422       362.945           19.88900
   193.66592       362.432           19.79600
   192.52368       361.919           19.70200
   191.38742       361.406           19.61000
   190.25713       360.892           19.51700
   189.13277       360.378           19.42500
   188.01431       359.864           19.33400
   186.90172       359.349           19.24300
   185.79495       358.834           19.15200
   184.69402       358.319           19.06200
   183.59885       357.803           18.97300
   182.50940       357.287           18.88400
   181.42567       356.771           18.79500
   180.34763       356.255           18.70700
   179.27522       355.738           18.61900
   178.20842       355.221           18.53100
   177.14720       354.704           18.44400
   176.09154       354.186           18.35700
   175.04140       353.668           18.27100
   173.99677       353.150           18.18600
   172.95758       352.631           18.10000
   171.92381       352.112           18.01500
   170.89546       351.593           17.93100
   169.87247       351.073           17.84600
   168.85481       350.553           17.76200
   167.84248       350.033           17.67900
   166.83543       349.513           17.59600
   165.83363       348.992           17.51300
   164.83705       348.470           17.43100
   163.84567       347.949           17.35000
   162.85945       347.427           17.26800
   161.87836       346.905           17.18700
   160.90239       346.382           17.10600
   159.93150       345.860           17.02600
   158.96565       345.336           16.94600
   158.00484       344.813           16.86600
   157.04901       344.289           16.78700
   156.09816       343.765           16.70800
   155.15225       343.240           16.63000
   154.21124       342.716           16.55200
   153.27513       342.190           16.47400
   152.34389       341.665           16.39600
   151.41747       341.139           16.32000
   150.49583       340.613           16.24300
   149.57899       340.086           16.16700
   148.66692       339.559           16.09100
   147.75957       339.032           16.01500
   146.85690       338.504           15.94000
   145.95892       337.977           15.86500
   145.06558       337.448           15.79100
   144.17686       336.920           15.71600
   143.29276       336.391           15.64200
   142.41321       335.861           15.56800
   141.53821       335.332           15.49500
   140.66774       334.802           15.42200
   139.80176       334.271           15.35000
   138.94025       333.741           15.27700
   138.08319       333.210           15.20500
   137.23056       332.678           15.13400
   136.38232       332.147           15.06200
   135.53847       331.615           14.99200
   134.69894       331.082           14.92100
   133.86377       330.549           14.85000
   133.03288       330.016           14.78000
   132.20628       329.483           14.71100
   131.38396       328.949           14.64100
   130.56584       328.415           14.57300
   129.75194       327.880           14.50300
   128.94223       327.346           14.43500
   128.13667       326.810           14.36700
   127.33527       326.275           14.29900
   126.53799       325.739           14.23100
   125.74480       325.203           14.16300
   124.95569       324.666           14.09700
   124.17063       324.129           14.03000
   123.38961       323.592           13.96400
   122.61259       323.054           13.89700
   121.83956       322.516           13.83200
   121.07050       321.978           13.76600
   120.30539       321.440           13.70100
   119.54420       320.901           13.63500
   118.78692       320.361           13.57100
   118.03351       319.822           13.50600
   117.28397       319.282           13.44200
   116.53828       318.741           13.37800
   115.79640       318.201           13.31500
   115.05833       317.660           13.25100
   114.32404       317.118           13.18700
   113.59351       316.577           13.12500
   112.86672       316.035           13.06300
   112.14366       315.492           13.00000
   111.42429       314.949           12.93700
   110.70862       314.406           12.87600
   109.99660       313.863           12.81500
   109.28824       313.319           12.75300
   108.58350       312.775           12.69200
   107.88236       312.231           12.63100
   107.18482       311.686           12.57000
   106.49085       311.141           12.51000
   105.80043       310.596           12.45000
   105.11355       310.050           12.39000
   104.43018       309.505           12.33000
   103.75031       308.958           12.27100
   103.07393       308.412           12.21200
   102.40101       307.865           12.15300
   101.73153       307.317           12.09400
   101.06548       306.770           12.03600
   100.40285       306.222           11.97700
    99.74361       305.674           11.92000
    99.08774       305.125           11.86200
    98.43524       304.576           11.80500
    97.78608       304.027           11.74700
    97.14025       303.478           11.69000
    96.49774       302.928           11.63300
    95.85852       302.378           11.57700
    95.22257       301.828           11.52000
    94.58989       301.277           11.46400
    93.96046       300.726           11.40800
    93.33426       300.175           11.35300
    92.71110       299.623           11.29700
    92.09111       299.071           11.24100
    91.47437       298.519           11.18700
    90.86084       297.966           11.13100
    90.25052       297.413           11.07700
    89.64337       296.860           11.02300
    89.03939       296.307           10.96800
    88.43854       295.753           10.91400
    87.84083       295.200           10.86000
    87.24621       294.646           10.80700
    86.65468       294.091           10.75300
    86.06622       293.537           10.70000
    85.48081       292.982           10.64700
    84.89842       292.427           10.59400
    84.31903       291.871           10.54100
    83.74262       291.315           10.48900
    83.16917       290.760           10.43700
    82.59869       290.203           10.38500
    82.03115       289.647           10.33300
    81.46654       289.090           10.28100
    80.90484       288.533           10.23000
    80.34605       287.976           10.17900
    79.79015       287.418           10.12700
    79.23713       286.860           10.07700
    78.68697       286.302           10.02600
    78.13967       285.744            9.97500
    77.51025       285.098            9.90860
    76.87835       284.445            9.84160
    76.25380       283.795            9.77580
    75.63641       283.148            9.71030
    75.02601       282.504            9.64600
    74.42241       281.863            9.58180
    73.82545       281.225            9.52000
    73.23498       280.590            9.45830
    72.65083       279.957            9.39670
    72.07285       279.327            9.33640
    71.50091       278.699            9.27720
    70.93487       278.074            9.21920
    70.37458       277.451            9.16130
    69.81992       276.831            9.10350
    69.27078       276.213            9.04690
    68.72702       275.596            8.99140
    68.18854       274.982            8.93590
    67.65521       274.370            8.88160
    67.12694       273.760            8.82740
    66.60362       273.152            8.77430
    66.08509       272.547            8.72120
    65.57129       271.945            8.66820
    65.06215       271.344            8.61630
    64.55757       270.744            8.56540
    64.05748       270.146            8.51460
    63.56178       269.550            8.46380
    63.07038       268.955            8.41410
    62.58321       268.361            8.36550
    62.10019       267.769            8.31590
    61.62125       267.178            8.26730
    61.14629       266.588            8.21980
    60.67526       266.000            8.17230
    60.20808       265.413            8.12480
    59.74469       264.827            8.07840
    59.28500       264.242            8.03200
    58.82898       263.658            7.98560
    58.37653       263.075            7.94020
    57.92760       262.493            7.89480
    57.48214       261.912            7.84940
    57.04007       261.332            7.80500
    56.60135       260.753            7.76060
    56.16590       260.175            7.71730
    55.73369       259.598            7.67390
    55.30465       259.021            7.63050
    54.87873       258.445            7.58710
    54.45588       257.870            7.54460
    54.03604       257.295            7.50220
    53.61917       256.721            7.45970
    53.20523       256.148            7.41820
    52.79416       255.575            7.37670
    52.38591       255.003            7.33520
    51.98045       254.431            7.29360
    51.57772       253.860            7.25300
    51.17770       253.289            7.21230
    50.78035       252.718            7.17160
    50.38561       252.148            7.13190
    49.99345       251.578            7.09220
    49.60385       251.009            7.05240
    49.21676       250.439            7.01250
    48.83215       249.870            6.97260
    48.44999       249.302            6.93370
    48.07025       248.733            6.89470
    47.69289       248.165            6.85560
    47.31791       247.596            6.81760
    46.94524       247.028            6.77940
    46.57489       246.460            6.74120
    46.20682       245.892            6.70300
    45.84101       245.324            6.66460
    45.47744       244.756            6.62730
    45.11607       244.189            6.58990
    44.75690       243.621            6.55240
    44.39991       243.053            6.51480
    44.04507       242.485            6.47830
    43.69236       241.917            6.44060
    43.34177       241.349            6.40390
    42.99327       240.782            6.36810
    42.64687       240.214            6.33130
    42.30254       239.646            6.29440
    41.96025       239.077            6.25840
    41.62001       238.509            6.22240
    41.28180       237.941            6.18630
    40.94559       237.372            6.15120
    40.61139       236.804            6.11500
    40.27918       236.235            6.07970
    39.94894       235.667            6.04440
    39.62067       235.098            6.00900
    39.29435       234.529            5.97460
    38.96997       233.959            5.93910
    38.64753       233.390            5.90450
    38.32700       232.820            5.86990
    38.00840       232.251            5.83520
    37.69169       231.681            5.80040
    37.37687       231.111            5.76670
    37.06394       230.541            5.73280
    36.75289       229.970            5.69780
    36.44370       229.400            5.66490
    36.13637       228.829            5.63090
    35.83089       228.258            5.59670
    35.52725       227.687            5.56360
    35.22544       227.116            5.53040
    34.92546       226.544            5.49710
    34.62730       225.973            5.46380
    34.33095       225.401            5.43030
    34.03640       224.829            5.39790
    33.74364       224.256            5.36550
    33.45267       223.684            5.33180
    33.16348       223.111            5.30030
    32.87606       222.538            5.26760
    32.59041       221.965            5.23480
    32.30652       221.392            5.20310
    32.02438       220.818            5.17130
    31.74398       220.245            5.13940
    31.46532       219.671            5.10740
    31.18839       219.096            5.07540
    30.91318       218.522            5.04440
    30.63969       217.947            5.01220
    30.36791       217.373            4.98110
    30.09783       216.798            4.94990
    29.82945       216.222            4.91860
    29.56276       215.647            4.88730
    29.29775       215.071            4.85700
    29.03442       214.495            4.82670
    28.77276       213.919            4.79510
    28.51276       213.342            4.76460
    28.25476       212.766            4.73520
    27.99807       212.190            4.70450
    27.74302       211.612            4.67500
    27.48961       211.035            4.64420
    27.23783       210.458            4.61450
    26.98767       209.880            4.58470
    26.73913       209.302            4.55490
    26.49220       208.723            4.52490
    26.24689       208.145            4.49610
    26.00316       207.566            4.46720
    25.76103       206.987            4.43710
    25.52049       206.408            4.40800
    25.28152       205.829            4.37890
    25.04414       205.249            4.35100
    24.80832       204.669            4.32170
    24.57405       204.089            4.29360
    24.34135       203.508            4.26420
    24.11019       202.928            4.23590
    23.88058       202.347            4.20750
    23.65250       201.766            4.17910
    23.42595       201.184            4.15190
    23.20093       200.602            4.12330
    22.97742       200.020            4.09590
    22.75543       199.438            4.06840
    22.53494       198.856            4.04080
    22.31595       198.273            4.01320
    22.09846       197.690            3.98550
    21.88245       197.107            3.95770
    21.66792       196.524            3.93110
    21.45487       195.940            3.90440
    21.24328       195.356            3.87770
    21.03316       194.772            3.85090
    20.82450       194.188            3.82400
    20.61728       193.603            3.79700
    20.41152       193.018            3.77000
    20.20719       192.433            3.74410
    20.00429       191.848            3.71820
    19.80282       191.262            3.69090
    19.60277       190.676            3.66490
    19.40413       190.090            3.64000
    19.20691       189.504            3.61380
    19.01109       188.917            3.58760
    18.81666       188.330            3.56250
    18.62363       187.743            3.53740
    18.43198       187.155            3.51090
    18.24171       186.568            3.48560
    18.05281       185.980            3.46030
    17.86528       185.392            3.43620
    17.67911       184.803            3.41070
    17.49430       184.215            3.38650
    17.31084       183.626            3.36080
    17.12872       183.036            3.33650
    16.94794       182.447            3.31200
    16.76850       181.857            3.28750
    16.59038       181.267            3.26290
    16.41358       180.677            3.23960
    16.23809       180.087            3.21490
    16.06392       179.496            3.19140
    15.89104       178.905            3.16650
    15.71947       178.314            3.14290
    15.54919       177.723            3.11930
    15.38020       177.131            3.09550
    15.21248       176.539            3.07170
    15.04604       175.947            3.04920
    14.88087       175.354            3.02530
    14.71697       174.762            3.00260
    14.55432       174.169            2.98000
    14.39293       173.576            2.95580
    14.23278       172.982            2.93290
    14.07387       172.389            2.91140
    13.91620       171.795            2.88840
    13.75976       171.201            2.86530
    13.60454       170.607            2.84360
    13.45054       170.012            2.82040
    13.29775       169.417            2.79860
    13.14618       168.822            2.77670
    12.99580       168.227            2.75470
    12.84662       167.632            2.73260
    12.69863       167.036            2.71050
    12.55183       166.440            2.68820
    12.40621       165.844            2.66740
    12.26176       165.248            2.64510
    12.11848       164.652            2.62410
    11.97637       164.055            2.60310
    11.83541       163.458            2.58200
    11.69561       162.861            2.56080
    11.55695       162.264            2.53960
    11.41944       161.666            2.51820
    11.28306       161.069            2.49840
    11.14781       160.471            2.47690
    11.01370       159.873            2.45690
    10.88070       159.275            2.43530
    10.74881       158.676            2.41510
    10.61804       158.078            2.39490
    10.48837       157.479            2.37460
    10.35979       156.880            2.35420
    10.23232       156.281            2.33370
    10.10593       155.682            2.31480
     9.98062       155.083            2.29420
     9.85639       154.483            2.27510
     9.73324       153.884            2.25590
     9.61115       153.284            2.23510
     9.49013       152.684            2.21580
     9.36724       152.099            2.19550
     9.24244       151.520            2.17260
     9.11917       150.940            2.15150
     8.99739       150.359            2.13040
     8.87706       149.777            2.10930
     8.75817       149.195            2.08810
     8.64070       148.612            2.06700
     8.52460       148.028            2.04760
     8.40986       147.444            2.02650
     8.29646       146.859            2.00710
     8.18437       146.274            1.98770
     8.07356       145.687            1.96820
     7.96403       145.101            1.94880
     7.85573       144.514            1.92930
     7.74866       143.926            1.90980
     7.64280       143.338            1.89030
     7.53812       142.749            1.87250
     7.43461       142.160            1.85470
     7.33224       141.570            1.83500
     7.23100       140.980            1.81720
     7.13088       140.390            1.79920
     7.03185       139.799            1.78130
     6.93391       139.208            1.76510
     6.83703       138.616            1.74700
     6.74120       138.024            1.72890
     6.64641       137.432            1.71260
     6.55264       136.840            1.69440
     6.45988       136.248            1.67800
     6.36812       135.655            1.66160
     6.27734       135.062            1.64500
     6.18999       134.540            1.62830
     6.10129       134.017            1.61080
     6.01357       133.500            1.59320
     5.92683       132.988            1.57750
     5.84106       132.482            1.55970
     5.75626       131.982            1.54380
     5.67242       131.487            1.52570
     5.58950       130.978            1.50970
     5.50747       130.441            1.49400
     5.42635       129.910            1.47820
     5.34614       129.385            1.46230
     5.26683       128.866            1.44620
     5.18841       128.353            1.43000
     5.11088       127.846            1.41370
     5.03423       127.344            1.39720
     4.95840       126.778            1.38340
     4.88338       126.185            1.36790
     4.80918       125.599            1.35420
     4.73579       125.019            1.34030
     4.66321       124.446            1.32440
     4.59144       123.879            1.31030
     4.52047       123.319            1.29600
     4.45029       122.757            1.28180
     4.38088       122.157            1.26780
     4.31223       121.563            1.25380
     4.24435       120.976            1.23960
     4.17722       120.395            1.22730
     4.11085       119.822            1.21280
     4.04524       119.254            1.19820
     3.98038       118.693            1.18550
     3.91624       118.070            1.17340
     3.85281       117.454            1.15910
     3.79010       116.844            1.14670
     3.72809       116.242            1.13420
     3.66680       115.646            1.12160
     3.60621       115.057            1.10890
     3.54632       114.475            1.09600
     3.48712       113.851            1.08340
     3.42860       113.229            1.07080
     3.37075       112.614            1.05800
     3.31357       112.006            1.04510
     3.25707       111.405            1.03420
     3.20123       110.812            1.02100
     3.14607       110.206            1.01000
     3.09154       109.554            0.99728
     3.03764       108.910            0.98652
     2.98438       108.273            0.97346
     2.93175       107.644            0.96244
     2.87975       107.022            0.95131
     2.82839       106.408            0.94004
     2.77765       105.755            0.92902
     2.72750       105.084            0.91812
     2.67795       104.421            0.90708
     2.62899       103.766            0.89590
     2.58064       103.119            0.88457
     2.53288       102.480            0.87309
     2.48572       101.838            0.86387
     2.43914       101.195            0.85231
     2.39315       100.559            0.84058
     2.34775        99.932            0.83108
     2.30294        99.313            0.81906
     2.25870        98.673            0.80955
     2.21504        98.010            0.79783
     2.17191        97.299            0.78870
     2.12932        96.597            0.77944
     2.08727        95.904            0.77006
     2.04576        95.220            0.76055
     2.00479        94.544            0.74848
     1.96434        93.811            0.73927
     1.92439        93.050            0.73013
     1.88494        92.298            0.72083
     1.84599        91.556            0.71375
     1.80754        90.824            0.70418
     1.76959        90.097            0.69444
     1.73210        89.223            0.68585
     1.68292        88.076            0.66939
     1.59874        86.113            0.62301
     1.52721        84.329            0.58625
     1.46678        82.788            0.55789
     1.41455        81.456            0.53225
     1.36940        80.386            0.51657
     1.32817        79.417            0.50161
     1.29015        78.525            0.48729
     1.25545        77.794            0.47686
     1.22125        76.964            0.46340
     1.18890        76.161            0.45363
     1.15822        75.399            0.44408
     1.12897        74.673            0.43472
     1.10100        73.981            0.42551
     1.07415        73.319            0.41640
     1.04825        72.680            0.41038
     1.02324        72.063            0.40141
     0.99901        71.465            0.39545
     0.97543        70.868            0.38954
     0.95250        70.278            0.38075
     0.93019        69.704            0.37489
     0.90850        69.146            0.36901
     0.88738        68.608            0.36312
     0.86685        68.120            0.35704
     0.84677        67.643            0.35092
     0.82715        67.177            0.34476
     0.80795        66.721            0.33855
     0.78915        66.274            0.33230
     0.77074        65.826            0.32604
     0.75272        65.387            0.31972
     0.73507        64.957            0.31334
     0.71777        64.536            0.31012
     0.70081        64.124            0.30363
     0.68421        63.714            0.29710
     0.66792        63.312            0.29381
     0.65197        62.918            0.28716
     0.63633        62.532            0.28380
     0.62098        62.137            0.27709
     0.60595        61.742            0.27373
     0.59120        61.353            0.26694
     0.57675        60.973            0.26351
     0.56258        60.600            0.25657
     0.54868        60.198            0.25318
     0.53505        59.797            0.24632
     0.52168        59.403            0.24285
     0.50858        59.018            0.23934
     0.49576        58.643            0.23580
     0.48318        58.281            0.22857
     0.47084        57.926            0.22491
     0.45878        57.578            0.22121
     0.44697        57.238            0.21748
     0.43541        56.928            0.21371
     0.42409        56.654            0.20573
     0.41303        56.387            0.20168
     0.40220        56.125            0.19761
     0.39162        55.870            0.19350
     0.38129        55.651            0.18924
     0.37119        55.441            0.18495
     0.36134        55.236            0.18063
     0.35172        55.036            0.17628
     0.34233        54.842            0.17189
     0.33316        54.653            0.16746
     0.32421        54.468            0.16301
     0.31548        54.287            0.16301
     0.30695        54.113            0.15852
     0.29862        53.944            0.15398
     0.29049        53.780            0.14941
     0.28260        53.621            0.14481
     0.27491        53.487            0.14007
     0.26739        53.364            0.14007
     0.26004        53.244            0.13530
     0.25294        53.128            0.13050
     0.24601        53.009            0.13050
     0.23921        52.890            0.12570
     0.23264        52.774            0.12087
     0.20086        52.331            0.16506
     0.19228        52.230            0.15717
     0.18407        52.144            0.14920
     0.17619        52.065            0.14920
     0.16862        51.985            0.14120
     0.16137        51.894            0.13323
     0.15450        51.808            0.12523
     0.14786        51.743            0.12523
     0.14150        51.708            0.11702
     0.13551        51.712            0.11702
     0.12966        51.725            0.10864
     0.12421        51.736            0.10027
     0.11890        51.756            0.10027
     0.11391        51.796            0.09179
     0.10450        51.903            0.08326
     0.09173        52.074            0.04801
     0.08834        52.153            0.04801
     0.08603        52.223            0.04801
     0.08373        52.293            0.04245
     0.08142        52.362            0.04245
     0.07928        52.431            0.04245
     0.07728        52.498            0.04245
     0.07528        52.566            0.03694
     0.07327        52.633            0.03694
     0.07127        52.700            0.03694
     0.06943        52.795            0.03694
     0.06774        52.915            0.03694
     0.06605        53.034            0.03694
     0.06436        53.153            0.03129
     0.06266        53.272            0.03129
     0.06097        53.391            0.03129
     0.05947        53.510            0.03129
     0.05809        53.629            0.03129
     0.05671        53.747            0.03129
     0.05532        53.866            0.02572
     0.05394        53.984            0.02572
     0.05255        54.103            0.02572
     0.05117        54.221            0.02572
     0.04991        54.343            0.02572
     0.04884        54.469            0.02572
     0.04776        54.595            0.02572
     0.04669        54.721            0.02572
     0.04561        54.847            0.02572
     0.04454        54.973            0.02023
     0.04347        55.100            0.02023
     0.04239        55.226            0.02023
     0.04132        55.352            0.02023
     0.04028        55.478            0.02023
     0.03957        55.603            0.02023
     0.03887        55.728            0.02023
     0.03816        55.854            0.02023
     0.03746        55.979            0.02023
     0.03675        56.104            0.02023
     0.03604        56.229            0.02023
     0.03534        56.354            0.01486
     0.03463        56.479            0.01486
     0.03393        56.605            0.01486
     0.03322        56.730            0.01486
     0.03251        56.855            0.01486
     0.03181        56.980            0.01486
     0.03110        57.105            0.01486
     0.03040        57.230            0.01486
     0.03001        57.381            0.01486
     0.02966        57.532            0.01486
     0.02930        57.684            0.01486
     0.02894        57.836            0.01486
     0.02858        57.988            0.01486
     0.02822        58.140            0.01486
     0.02787        58.292            0.01486
     0.02751        58.443            0.01486
     0.02715        58.595            0.01486
     0.02679        58.747            0.01486
     0.02643        58.899            0.01486
     0.02607        59.051            0.01486
     0.02572        59.203            0.01486
     0.02536        59.354            0.01486
     0.02500        59.506            0.00985
     0.02464        59.658            0.00985
     0.02428        59.810            0.00985
     0.02393        59.962            0.00985
     0.02357        60.114            0.00985
     0.02321        60.265            0.00985
     0.02285        60.417            0.00985
     0.02249        60.569            0.00985
     0.02213        60.721            0.00985
     0.02178        60.873            0.00985
     0.02142        61.025            0.00985
     0.02106        61.177            0.00985
     0.02070        61.328            0.00985
     0.02035        61.483            0.00985
     0.02007        61.787            0.00985
     0.01980        62.090            0.00985
     0.01953        62.394            0.00985
     0.01926        62.698            0.00985
     0.01898        63.002            0.00985
     0.01871        63.306            0.00985
     0.01844        63.610            0.00985
     0.01817        63.914            0.00985
     0.01790        64.217            0.00985
     0.01762        64.521            0.00985
     0.01735        64.825            0.00985
     0.01708        65.129            0.00985
     0.01681        65.433            0.00985
     0.01654        65.737            0.00985
     0.01626        66.040            0.00985
     0.01599        66.344            0.00985
     0.01572        66.648            0.00985
     0.01545        66.952            0.00985
     0.01517        67.256            0.00504
     0.01490        67.560            0.00504
     0.01463        67.863            0.00504
     0.01436        68.167            0.00504
     0.01409        68.471            0.00504
     0.01381        68.775            0.00504
     0.01354        69.079            0.00504
     0.01327        69.383            0.00504
     0.01300        69.687            0.00504
     0.01273        69.990            0.00504
     0.01245        70.294            0.00504
     0.01218        70.598            0.00504
